创建为新数据集,样品 1563 用户 Administrator 日期 星期日, 三月 12 2017
cm-1,%T
10000.00,0.94
9998.00,0.94
9996.00,0.93
9994.00,0.93
9992.00,0.93
9990.00,0.93
9988.00,0.93
9986.00,0.93
9984.00,0.93
9982.00,0.93
9980.00,0.93
9978.00,0.93
9976.00,0.93
9974.00,0.93
9972.00,0.93
9970.00,0.93
9968.00,0.93
9966.00,0.93
9964.00,0.93
9962.00,0.93
9960.00,0.93
9958.00,0.92
9956.00,0.92
9954.00,0.91
9952.00,0.91
9950.00,0.91
9948.00,0.91
9946.00,0.91
9944.00,0.91
9942.00,0.92
9940.00,0.92
9938.00,0.92
9936.00,0.92
9934.00,0.92
9932.00,0.92
9930.00,0.92
9928.00,0.93
9926.00,0.93
9924.00,0.93
9922.00,0.94
9920.00,0.94
9918.00,0.94
9916.00,0.94
9914.00,0.94
9912.00,0.93
9910.00,0.93
9908.00,0.93
9906.00,0.93
9904.00,0.94
9902.00,0.94
9900.00,0.94
9898.00,0.94
9896.00,0.94
9894.00,0.94
9892.00,0.94
9890.00,0.94
9888.00,0.94
9886.00,0.93
9884.00,0.93
9882.00,0.93
9880.00,0.93
9878.00,0.93
9876.00,0.93
9874.00,0.93
9872.00,0.92
9870.00,0.92
9868.00,0.92
9866.00,0.92
9864.00,0.93
9862.00,0.93
9860.00,0.93
9858.00,0.93
9856.00,0.93
9854.00,0.93
9852.00,0.93
9850.00,0.93
9848.00,0.93
9846.00,0.93
9844.00,0.93
9842.00,0.93
9840.00,0.93
9838.00,0.93
9836.00,0.93
9834.00,0.93
9832.00,0.93
9830.00,0.93
9828.00,0.93
9826.00,0.94
9824.00,0.94
9822.00,0.94
9820.00,0.94
9818.00,0.94
9816.00,0.94
9814.00,0.94
9812.00,0.94
9810.00,0.94
9808.00,0.93
9806.00,0.93
9804.00,0.93
9802.00,0.93
9800.00,0.93
9798.00,0.93
9796.00,0.93
9794.00,0.92
9792.00,0.92
9790.00,0.92
9788.00,0.92
9786.00,0.92
9784.00,0.92
9782.00,0.92
9780.00,0.92
9778.00,0.93
9776.00,0.93
9774.00,0.93
9772.00,0.94
9770.00,0.93
9768.00,0.93
9766.00,0.93
9764.00,0.92
9762.00,0.92
9760.00,0.91
9758.00,0.91
9756.00,0.90
9754.00,0.90
9752.00,0.90
9750.00,0.90
9748.00,0.91
9746.00,0.92
9744.00,0.93
9742.00,0.94
9740.00,0.94
9738.00,0.95
9736.00,0.96
9734.00,0.96
9732.00,0.95
9730.00,0.95
9728.00,0.94
9726.00,0.93
9724.00,0.93
9722.00,0.92
9720.00,0.92
9718.00,0.92
9716.00,0.92
9714.00,0.92
9712.00,0.92
9710.00,0.93
9708.00,0.93
9706.00,0.93
9704.00,0.93
9702.00,0.93
9700.00,0.93
9698.00,0.92
9696.00,0.92
9694.00,0.92
9692.00,0.92
9690.00,0.92
9688.00,0.92
9686.00,0.92
9684.00,0.92
9682.00,0.93
9680.00,0.93
9678.00,0.93
9676.00,0.93
9674.00,0.93
9672.00,0.93
9670.00,0.94
9668.00,0.94
9666.00,0.94
9664.00,0.94
9662.00,0.94
9660.00,0.93
9658.00,0.93
9656.00,0.93
9654.00,0.92
9652.00,0.92
9650.00,0.92
9648.00,0.92
9646.00,0.92
9644.00,0.92
9642.00,0.92
9640.00,0.92
9638.00,0.92
9636.00,0.92
9634.00,0.92
9632.00,0.92
9630.00,0.92
9628.00,0.91
9626.00,0.91
9624.00,0.91
9622.00,0.91
9620.00,0.91
9618.00,0.91
9616.00,0.92
9614.00,0.92
9612.00,0.93
9610.00,0.93
9608.00,0.93
9606.00,0.94
9604.00,0.94
9602.00,0.94
9600.00,0.94
9598.00,0.94
9596.00,0.94
9594.00,0.94
9592.00,0.93
9590.00,0.93
9588.00,0.93
9586.00,0.93
9584.00,0.92
9582.00,0.92
9580.00,0.91
9578.00,0.91
9576.00,0.91
9574.00,0.91
9572.00,0.91
9570.00,0.92
9568.00,0.92
9566.00,0.92
9564.00,0.92
9562.00,0.92
9560.00,0.92
9558.00,0.92
9556.00,0.92
9554.00,0.92
9552.00,0.92
9550.00,0.92
9548.00,0.91
9546.00,0.91
9544.00,0.91
9542.00,0.91
9540.00,0.90
9538.00,0.90
9536.00,0.90
9534.00,0.91
9532.00,0.91
9530.00,0.91
9528.00,0.91
9526.00,0.92
9524.00,0.92
9522.00,0.92
9520.00,0.91
9518.00,0.91
9516.00,0.91
9514.00,0.91
9512.00,0.91
9510.00,0.91
9508.00,0.91
9506.00,0.91
9504.00,0.91
9502.00,0.91
9500.00,0.91
9498.00,0.91
9496.00,0.91
9494.00,0.91
9492.00,0.91
9490.00,0.91
9488.00,0.91
9486.00,0.91
9484.00,0.92
9482.00,0.92
9480.00,0.92
9478.00,0.93
9476.00,0.93
9474.00,0.92
9472.00,0.92
9470.00,0.92
9468.00,0.91
9466.00,0.90
9464.00,0.90
9462.00,0.90
9460.00,0.89
9458.00,0.89
9456.00,0.90
9454.00,0.90
9452.00,0.90
9450.00,0.91
9448.00,0.91
9446.00,0.91
9444.00,0.91
9442.00,0.91
9440.00,0.91
9438.00,0.91
9436.00,0.91
9434.00,0.91
9432.00,0.91
9430.00,0.92
9428.00,0.92
9426.00,0.92
9424.00,0.92
9422.00,0.92
9420.00,0.92
9418.00,0.92
9416.00,0.92
9414.00,0.92
9412.00,0.92
9410.00,0.92
9408.00,0.92
9406.00,0.93
9404.00,0.93
9402.00,0.93
9400.00,0.93
9398.00,0.94
9396.00,0.94
9394.00,0.94
9392.00,0.94
9390.00,0.94
9388.00,0.94
9386.00,0.94
9384.00,0.94
9382.00,0.93
9380.00,0.93
9378.00,0.93
9376.00,0.92
9374.00,0.92
9372.00,0.91
9370.00,0.91
9368.00,0.91
9366.00,0.91
9364.00,0.91
9362.00,0.91
9360.00,0.91
9358.00,0.91
9356.00,0.91
9354.00,0.91
9352.00,0.91
9350.00,0.91
9348.00,0.92
9346.00,0.92
9344.00,0.92
9342.00,0.92
9340.00,0.92
9338.00,0.92
9336.00,0.93
9334.00,0.93
9332.00,0.93
9330.00,0.93
9328.00,0.93
9326.00,0.92
9324.00,0.92
9322.00,0.92
9320.00,0.92
9318.00,0.92
9316.00,0.91
9314.00,0.91
9312.00,0.91
9310.00,0.91
9308.00,0.91
9306.00,0.91
9304.00,0.91
9302.00,0.91
9300.00,0.91
9298.00,0.91
9296.00,0.91
9294.00,0.92
9292.00,0.92
9290.00,0.92
9288.00,0.92
9286.00,0.92
9284.00,0.92
9282.00,0.92
9280.00,0.92
9278.00,0.92
9276.00,0.92
9274.00,0.92
9272.00,0.92
9270.00,0.92
9268.00,0.92
9266.00,0.92
9264.00,0.92
9262.00,0.92
9260.00,0.92
9258.00,0.92
9256.00,0.92
9254.00,0.92
9252.00,0.92
9250.00,0.92
9248.00,0.92
9246.00,0.92
9244.00,0.92
9242.00,0.92
9240.00,0.92
9238.00,0.92
9236.00,0.92
9234.00,0.92
9232.00,0.92
9230.00,0.92
9228.00,0.92
9226.00,0.92
9224.00,0.92
9222.00,0.93
9220.00,0.93
9218.00,0.93
9216.00,0.93
9214.00,0.93
9212.00,0.92
9210.00,0.92
9208.00,0.92
9206.00,0.91
9204.00,0.91
9202.00,0.91
9200.00,0.91
9198.00,0.91
9196.00,0.90
9194.00,0.90
9192.00,0.90
9190.00,0.90
9188.00,0.90
9186.00,0.91
9184.00,0.91
9182.00,0.91
9180.00,0.91
9178.00,0.91
9176.00,0.92
9174.00,0.92
9172.00,0.92
9170.00,0.92
9168.00,0.92
9166.00,0.93
9164.00,0.93
9162.00,0.93
9160.00,0.93
9158.00,0.94
9156.00,0.94
9154.00,0.94
9152.00,0.94
9150.00,0.94
9148.00,0.94
9146.00,0.94
9144.00,0.94
9142.00,0.93
9140.00,0.92
9138.00,0.92
9136.00,0.91
9134.00,0.91
9132.00,0.91
9130.00,0.91
9128.00,0.91
9126.00,0.91
9124.00,0.92
9122.00,0.92
9120.00,0.92
9118.00,0.92
9116.00,0.92
9114.00,0.92
9112.00,0.92
9110.00,0.91
9108.00,0.91
9106.00,0.91
9104.00,0.91
9102.00,0.91
9100.00,0.91
9098.00,0.92
9096.00,0.92
9094.00,0.92
9092.00,0.92
9090.00,0.92
9088.00,0.92
9086.00,0.92
9084.00,0.92
9082.00,0.92
9080.00,0.92
9078.00,0.92
9076.00,0.92
9074.00,0.93
9072.00,0.93
9070.00,0.93
9068.00,0.93
9066.00,0.93
9064.00,0.93
9062.00,0.93
9060.00,0.93
9058.00,0.92
9056.00,0.92
9054.00,0.92
9052.00,0.92
9050.00,0.92
9048.00,0.92
9046.00,0.93
9044.00,0.93
9042.00,0.93
9040.00,0.93
9038.00,0.93
9036.00,0.93
9034.00,0.93
9032.00,0.93
9030.00,0.93
9028.00,0.93
9026.00,0.92
9024.00,0.92
9022.00,0.92
9020.00,0.92
9018.00,0.92
9016.00,0.92
9014.00,0.92
9012.00,0.92
9010.00,0.92
9008.00,0.91
9006.00,0.91
9004.00,0.91
9002.00,0.91
9000.00,0.91
8998.00,0.91
8996.00,0.91
8994.00,0.91
8992.00,0.91
8990.00,0.91
8988.00,0.91
8986.00,0.90
8984.00,0.90
8982.00,0.90
8980.00,0.90
8978.00,0.90
8976.00,0.90
8974.00,0.90
8972.00,0.91
8970.00,0.91
8968.00,0.91
8966.00,0.92
8964.00,0.92
8962.00,0.92
8960.00,0.92
8958.00,0.92
8956.00,0.92
8954.00,0.92
8952.00,0.92
8950.00,0.92
8948.00,0.92
8946.00,0.92
8944.00,0.91
8942.00,0.91
8940.00,0.91
8938.00,0.91
8936.00,0.91
8934.00,0.91
8932.00,0.90
8930.00,0.90
8928.00,0.90
8926.00,0.90
8924.00,0.90
8922.00,0.90
8920.00,0.90
8918.00,0.90
8916.00,0.90
8914.00,0.90
8912.00,0.90
8910.00,0.90
8908.00,0.91
8906.00,0.91
8904.00,0.91
8902.00,0.91
8900.00,0.91
8898.00,0.92
8896.00,0.92
8894.00,0.92
8892.00,0.92
8890.00,0.92
8888.00,0.92
8886.00,0.92
8884.00,0.92
8882.00,0.92
8880.00,0.92
8878.00,0.92
8876.00,0.92
8874.00,0.92
8872.00,0.92
8870.00,0.93
8868.00,0.93
8866.00,0.93
8864.00,0.92
8862.00,0.92
8860.00,0.92
8858.00,0.92
8856.00,0.92
8854.00,0.91
8852.00,0.91
8850.00,0.91
8848.00,0.91
8846.00,0.91
8844.00,0.91
8842.00,0.91
8840.00,0.91
8838.00,0.92
8836.00,0.92
8834.00,0.92
8832.00,0.92
8830.00,0.92
8828.00,0.92
8826.00,0.92
8824.00,0.92
8822.00,0.92
8820.00,0.92
8818.00,0.92
8816.00,0.92
8814.00,0.93
8812.00,0.93
8810.00,0.93
8808.00,0.93
8806.00,0.93
8804.00,0.93
8802.00,0.93
8800.00,0.92
8798.00,0.92
8796.00,0.92
8794.00,0.92
8792.00,0.93
8790.00,0.93
8788.00,0.93
8786.00,0.93
8784.00,0.93
8782.00,0.93
8780.00,0.93
8778.00,0.93
8776.00,0.93
8774.00,0.92
8772.00,0.92
8770.00,0.92
8768.00,0.92
8766.00,0.92
8764.00,0.92
8762.00,0.92
8760.00,0.92
8758.00,0.92
8756.00,0.92
8754.00,0.93
8752.00,0.93
8750.00,0.93
8748.00,0.93
8746.00,0.92
8744.00,0.92
8742.00,0.92
8740.00,0.92
8738.00,0.92
8736.00,0.92
8734.00,0.92
8732.00,0.92
8730.00,0.92
8728.00,0.91
8726.00,0.91
8724.00,0.91
8722.00,0.91
8720.00,0.91
8718.00,0.91
8716.00,0.91
8714.00,0.91
8712.00,0.92
8710.00,0.92
8708.00,0.92
8706.00,0.92
8704.00,0.92
8702.00,0.91
8700.00,0.91
8698.00,0.91
8696.00,0.91
8694.00,0.91
8692.00,0.91
8690.00,0.91
8688.00,0.91
8686.00,0.91
8684.00,0.91
8682.00,0.92
8680.00,0.92
8678.00,0.92
8676.00,0.92
8674.00,0.92
8672.00,0.91
8670.00,0.91
8668.00,0.91
8666.00,0.91
8664.00,0.90
8662.00,0.90
8660.00,0.90
8658.00,0.90
8656.00,0.90
8654.00,0.90
8652.00,0.91
8650.00,0.91
8648.00,0.91
8646.00,0.91
8644.00,0.92
8642.00,0.91
8640.00,0.91
8638.00,0.91
8636.00,0.91
8634.00,0.91
8632.00,0.91
8630.00,0.91
8628.00,0.91
8626.00,0.91
8624.00,0.92
8622.00,0.92
8620.00,0.92
8618.00,0.92
8616.00,0.92
8614.00,0.91
8612.00,0.91
8610.00,0.91
8608.00,0.91
8606.00,0.91
8604.00,0.91
8602.00,0.91
8600.00,0.92
8598.00,0.92
8596.00,0.92
8594.00,0.92
8592.00,0.92
8590.00,0.92
8588.00,0.92
8586.00,0.92
8584.00,0.91
8582.00,0.91
8580.00,0.91
8578.00,0.91
8576.00,0.91
8574.00,0.91
8572.00,0.91
8570.00,0.91
8568.00,0.91
8566.00,0.91
8564.00,0.91
8562.00,0.91
8560.00,0.91
8558.00,0.91
8556.00,0.91
8554.00,0.91
8552.00,0.91
8550.00,0.91
8548.00,0.91
8546.00,0.91
8544.00,0.91
8542.00,0.91
8540.00,0.91
8538.00,0.91
8536.00,0.91
8534.00,0.90
8532.00,0.90
8530.00,0.90
8528.00,0.90
8526.00,0.90
8524.00,0.90
8522.00,0.90
8520.00,0.90
8518.00,0.91
8516.00,0.91
8514.00,0.91
8512.00,0.92
8510.00,0.92
8508.00,0.92
8506.00,0.92
8504.00,0.92
8502.00,0.91
8500.00,0.91
8498.00,0.91
8496.00,0.91
8494.00,0.90
8492.00,0.90
8490.00,0.90
8488.00,0.90
8486.00,0.90
8484.00,0.91
8482.00,0.91
8480.00,0.91
8478.00,0.91
8476.00,0.92
8474.00,0.92
8472.00,0.92
8470.00,0.92
8468.00,0.92
8466.00,0.92
8464.00,0.92
8462.00,0.92
8460.00,0.92
8458.00,0.92
8456.00,0.92
8454.00,0.91
8452.00,0.91
8450.00,0.91
8448.00,0.91
8446.00,0.90
8444.00,0.90
8442.00,0.90
8440.00,0.91
8438.00,0.91
8436.00,0.91
8434.00,0.91
8432.00,0.92
8430.00,0.92
8428.00,0.92
8426.00,0.92
8424.00,0.92
8422.00,0.92
8420.00,0.92
8418.00,0.92
8416.00,0.92
8414.00,0.92
8412.00,0.92
8410.00,0.92
8408.00,0.92
8406.00,0.92
8404.00,0.91
8402.00,0.91
8400.00,0.91
8398.00,0.90
8396.00,0.90
8394.00,0.90
8392.00,0.90
8390.00,0.90
8388.00,0.90
8386.00,0.90
8384.00,0.91
8382.00,0.91
8380.00,0.91
8378.00,0.91
8376.00,0.91
8374.00,0.91
8372.00,0.91
8370.00,0.91
8368.00,0.91
8366.00,0.91
8364.00,0.91
8362.00,0.90
8360.00,0.90
8358.00,0.90
8356.00,0.90
8354.00,0.90
8352.00,0.90
8350.00,0.91
8348.00,0.91
8346.00,0.91
8344.00,0.91
8342.00,0.91
8340.00,0.91
8338.00,0.91
8336.00,0.91
8334.00,0.91
8332.00,0.91
8330.00,0.92
8328.00,0.92
8326.00,0.92
8324.00,0.92
8322.00,0.92
8320.00,0.92
8318.00,0.92
8316.00,0.92
8314.00,0.91
8312.00,0.91
8310.00,0.91
8308.00,0.91
8306.00,0.91
8304.00,0.91
8302.00,0.91
8300.00,0.91
8298.00,0.91
8296.00,0.91
8294.00,0.91
8292.00,0.91
8290.00,0.91
8288.00,0.91
8286.00,0.91
8284.00,0.91
8282.00,0.91
8280.00,0.91
8278.00,0.91
8276.00,0.91
8274.00,0.91
8272.00,0.92
8270.00,0.92
8268.00,0.91
8266.00,0.91
8264.00,0.91
8262.00,0.91
8260.00,0.90
8258.00,0.90
8256.00,0.90
8254.00,0.91
8252.00,0.91
8250.00,0.91
8248.00,0.91
8246.00,0.92
8244.00,0.92
8242.00,0.92
8240.00,0.92
8238.00,0.92
8236.00,0.92
8234.00,0.92
8232.00,0.92
8230.00,0.92
8228.00,0.92
8226.00,0.92
8224.00,0.92
8222.00,0.92
8220.00,0.92
8218.00,0.92
8216.00,0.92
8214.00,0.92
8212.00,0.92
8210.00,0.92
8208.00,0.92
8206.00,0.92
8204.00,0.92
8202.00,0.92
8200.00,0.92
8198.00,0.92
8196.00,0.91
8194.00,0.91
8192.00,0.91
8190.00,0.91
8188.00,0.91
8186.00,0.91
8184.00,0.91
8182.00,0.91
8180.00,0.91
8178.00,0.91
8176.00,0.91
8174.00,0.91
8172.00,0.92
8170.00,0.92
8168.00,0.92
8166.00,0.92
8164.00,0.93
8162.00,0.93
8160.00,0.93
8158.00,0.93
8156.00,0.93
8154.00,0.93
8152.00,0.93
8150.00,0.93
8148.00,0.93
8146.00,0.93
8144.00,0.93
8142.00,0.93
8140.00,0.93
8138.00,0.93
8136.00,0.93
8134.00,0.93
8132.00,0.93
8130.00,0.93
8128.00,0.93
8126.00,0.93
8124.00,0.93
8122.00,0.93
8120.00,0.93
8118.00,0.93
8116.00,0.93
8114.00,0.93
8112.00,0.93
8110.00,0.93
8108.00,0.93
8106.00,0.93
8104.00,0.93
8102.00,0.93
8100.00,0.93
8098.00,0.93
8096.00,0.93
8094.00,0.93
8092.00,0.93
8090.00,0.93
8088.00,0.93
8086.00,0.93
8084.00,0.93
8082.00,0.93
8080.00,0.93
8078.00,0.93
8076.00,0.93
8074.00,0.93
8072.00,0.93
8070.00,0.93
8068.00,0.93
8066.00,0.93
8064.00,0.93
8062.00,0.93
8060.00,0.93
8058.00,0.93
8056.00,0.93
8054.00,0.93
8052.00,0.93
8050.00,0.93
8048.00,0.93
8046.00,0.93
8044.00,0.92
8042.00,0.92
8040.00,0.92
8038.00,0.92
8036.00,0.93
8034.00,0.93
8032.00,0.93
8030.00,0.93
8028.00,0.93
8026.00,0.93
8024.00,0.93
8022.00,0.93
8020.00,0.93
8018.00,0.93
8016.00,0.93
8014.00,0.93
8012.00,0.92
8010.00,0.92
8008.00,0.92
8006.00,0.92
8004.00,0.92
8002.00,0.93
8000.00,0.93
7998.00,0.93
7996.00,0.93
7994.00,0.94
7992.00,0.94
7990.00,0.94
7988.00,0.93
7986.00,0.93
7984.00,0.93
7982.00,0.93
7980.00,0.92
7978.00,0.92
7976.00,0.92
7974.00,0.92
7972.00,0.92
7970.00,0.92
7968.00,0.92
7966.00,0.92
7964.00,0.92
7962.00,0.93
7960.00,0.93
7958.00,0.93
7956.00,0.93
7954.00,0.93
7952.00,0.93
7950.00,0.93
7948.00,0.92
7946.00,0.92
7944.00,0.92
7942.00,0.92
7940.00,0.92
7938.00,0.92
7936.00,0.92
7934.00,0.92
7932.00,0.92
7930.00,0.93
7928.00,0.93
7926.00,0.93
7924.00,0.93
7922.00,0.93
7920.00,0.93
7918.00,0.93
7916.00,0.93
7914.00,0.93
7912.00,0.93
7910.00,0.92
7908.00,0.92
7906.00,0.92
7904.00,0.92
7902.00,0.92
7900.00,0.92
7898.00,0.92
7896.00,0.93
7894.00,0.93
7892.00,0.93
7890.00,0.93
7888.00,0.94
7886.00,0.94
7884.00,0.94
7882.00,0.93
7880.00,0.93
7878.00,0.93
7876.00,0.93
7874.00,0.93
7872.00,0.93
7870.00,0.93
7868.00,0.93
7866.00,0.93
7864.00,0.93
7862.00,0.93
7860.00,0.93
7858.00,0.94
7856.00,0.94
7854.00,0.94
7852.00,0.94
7850.00,0.94
7848.00,0.94
7846.00,0.94
7844.00,0.94
7842.00,0.94
7840.00,0.94
7838.00,0.94
7836.00,0.94
7834.00,0.94
7832.00,0.94
7830.00,0.94
7828.00,0.94
7826.00,0.93
7824.00,0.93
7822.00,0.93
7820.00,0.93
7818.00,0.93
7816.00,0.93
7814.00,0.93
7812.00,0.93
7810.00,0.93
7808.00,0.93
7806.00,0.93
7804.00,0.93
7802.00,0.93
7800.00,0.93
7798.00,0.93
7796.00,0.93
7794.00,0.93
7792.00,0.93
7790.00,0.93
7788.00,0.93
7786.00,0.93
7784.00,0.93
7782.00,0.92
7780.00,0.92
7778.00,0.92
7776.00,0.93
7774.00,0.93
7772.00,0.93
7770.00,0.93
7768.00,0.93
7766.00,0.93
7764.00,0.93
7762.00,0.93
7760.00,0.93
7758.00,0.93
7756.00,0.93
7754.00,0.93
7752.00,0.94
7750.00,0.94
7748.00,0.94
7746.00,0.94
7744.00,0.94
7742.00,0.94
7740.00,0.93
7738.00,0.93
7736.00,0.93
7734.00,0.93
7732.00,0.93
7730.00,0.93
7728.00,0.93
7726.00,0.93
7724.00,0.93
7722.00,0.93
7720.00,0.93
7718.00,0.93
7716.00,0.93
7714.00,0.92
7712.00,0.92
7710.00,0.92
7708.00,0.92
7706.00,0.92
7704.00,0.92
7702.00,0.92
7700.00,0.92
7698.00,0.93
7696.00,0.93
7694.00,0.93
7692.00,0.93
7690.00,0.93
7688.00,0.93
7686.00,0.93
7684.00,0.93
7682.00,0.93
7680.00,0.93
7678.00,0.93
7676.00,0.92
7674.00,0.92
7672.00,0.92
7670.00,0.92
7668.00,0.92
7666.00,0.92
7664.00,0.92
7662.00,0.92
7660.00,0.93
7658.00,0.93
7656.00,0.93
7654.00,0.93
7652.00,0.93
7650.00,0.93
7648.00,0.93
7646.00,0.93
7644.00,0.93
7642.00,0.94
7640.00,0.94
7638.00,0.94
7636.00,0.94
7634.00,0.93
7632.00,0.93
7630.00,0.93
7628.00,0.93
7626.00,0.93
7624.00,0.93
7622.00,0.92
7620.00,0.92
7618.00,0.92
7616.00,0.92
7614.00,0.93
7612.00,0.93
7610.00,0.93
7608.00,0.93
7606.00,0.93
7604.00,0.93
7602.00,0.93
7600.00,0.93
7598.00,0.93
7596.00,0.92
7594.00,0.92
7592.00,0.92
7590.00,0.92
7588.00,0.92
7586.00,0.92
7584.00,0.92
7582.00,0.93
7580.00,0.93
7578.00,0.93
7576.00,0.93
7574.00,0.93
7572.00,0.93
7570.00,0.93
7568.00,0.93
7566.00,0.93
7564.00,0.93
7562.00,0.93
7560.00,0.93
7558.00,0.93
7556.00,0.93
7554.00,0.93
7552.00,0.93
7550.00,0.93
7548.00,0.93
7546.00,0.93
7544.00,0.93
7542.00,0.93
7540.00,0.93
7538.00,0.93
7536.00,0.93
7534.00,0.93
7532.00,0.93
7530.00,0.93
7528.00,0.93
7526.00,0.93
7524.00,0.93
7522.00,0.93
7520.00,0.93
7518.00,0.93
7516.00,0.93
7514.00,0.93
7512.00,0.93
7510.00,0.93
7508.00,0.93
7506.00,0.93
7504.00,0.93
7502.00,0.93
7500.00,0.93
7498.00,0.93
7496.00,0.92
7494.00,0.92
7492.00,0.92
7490.00,0.92
7488.00,0.92
7486.00,0.92
7484.00,0.93
7482.00,0.93
7480.00,0.93
7478.00,0.93
7476.00,0.93
7474.00,0.92
7472.00,0.92
7470.00,0.92
7468.00,0.92
7466.00,0.92
7464.00,0.92
7462.00,0.92
7460.00,0.92
7458.00,0.92
7456.00,0.92
7454.00,0.92
7452.00,0.92
7450.00,0.92
7448.00,0.92
7446.00,0.92
7444.00,0.92
7442.00,0.92
7440.00,0.92
7438.00,0.92
7436.00,0.92
7434.00,0.92
7432.00,0.92
7430.00,0.92
7428.00,0.92
7426.00,0.92
7424.00,0.92
7422.00,0.92
7420.00,0.92
7418.00,0.92
7416.00,0.92
7414.00,0.92
7412.00,0.92
7410.00,0.92
7408.00,0.92
7406.00,0.92
7404.00,0.92
7402.00,0.92
7400.00,0.92
7398.00,0.92
7396.00,0.92
7394.00,0.92
7392.00,0.92
7390.00,0.92
7388.00,0.92
7386.00,0.92
7384.00,0.92
7382.00,0.92
7380.00,0.92
7378.00,0.92
7376.00,0.92
7374.00,0.92
7372.00,0.92
7370.00,0.92
7368.00,0.92
7366.00,0.92
7364.00,0.92
7362.00,0.92
7360.00,0.92
7358.00,0.92
7356.00,0.92
7354.00,0.92
7352.00,0.92
7350.00,0.91
7348.00,0.91
7346.00,0.91
7344.00,0.91
7342.00,0.91
7340.00,0.91
7338.00,0.91
7336.00,0.91
7334.00,0.91
7332.00,0.91
7330.00,0.91
7328.00,0.92
7326.00,0.92
7324.00,0.92
7322.00,0.92
7320.00,0.91
7318.00,0.91
7316.00,0.91
7314.00,0.91
7312.00,0.91
7310.00,0.91
7308.00,0.91
7306.00,0.91
7304.00,0.91
7302.00,0.91
7300.00,0.91
7298.00,0.91
7296.00,0.91
7294.00,0.91
7292.00,0.91
7290.00,0.91
7288.00,0.91
7286.00,0.91
7284.00,0.91
7282.00,0.91
7280.00,0.91
7278.00,0.91
7276.00,0.91
7274.00,0.91
7272.00,0.92
7270.00,0.92
7268.00,0.91
7266.00,0.91
7264.00,0.91
7262.00,0.91
7260.00,0.91
7258.00,0.91
7256.00,0.91
7254.00,0.91
7252.00,0.91
7250.00,0.91
7248.00,0.90
7246.00,0.90
7244.00,0.90
7242.00,0.90
7240.00,0.90
7238.00,0.90
7236.00,0.90
7234.00,0.90
7232.00,0.90
7230.00,0.90
7228.00,0.90
7226.00,0.90
7224.00,0.90
7222.00,0.90
7220.00,0.90
7218.00,0.90
7216.00,0.90
7214.00,0.90
7212.00,0.89
7210.00,0.89
7208.00,0.89
7206.00,0.89
7204.00,0.89
7202.00,0.89
7200.00,0.89
7198.00,0.89
7196.00,0.89
7194.00,0.89
7192.00,0.89
7190.00,0.89
7188.00,0.89
7186.00,0.89
7184.00,0.89
7182.00,0.89
7180.00,0.89
7178.00,0.89
7176.00,0.89
7174.00,0.88
7172.00,0.88
7170.00,0.88
7168.00,0.88
7166.00,0.87
7164.00,0.87
7162.00,0.87
7160.00,0.87
7158.00,0.87
7156.00,0.87
7154.00,0.87
7152.00,0.87
7150.00,0.88
7148.00,0.88
7146.00,0.88
7144.00,0.88
7142.00,0.88
7140.00,0.88
7138.00,0.87
7136.00,0.87
7134.00,0.87
7132.00,0.87
7130.00,0.87
7128.00,0.87
7126.00,0.87
7124.00,0.87
7122.00,0.87
7120.00,0.87
7118.00,0.86
7116.00,0.86
7114.00,0.86
7112.00,0.86
7110.00,0.86
7108.00,0.86
7106.00,0.86
7104.00,0.86
7102.00,0.86
7100.00,0.86
7098.00,0.86
7096.00,0.86
7094.00,0.86
7092.00,0.86
7090.00,0.86
7088.00,0.86
7086.00,0.86
7084.00,0.86
7082.00,0.86
7080.00,0.86
7078.00,0.86
7076.00,0.86
7074.00,0.86
7072.00,0.86
7070.00,0.86
7068.00,0.86
7066.00,0.86
7064.00,0.86
7062.00,0.85
7060.00,0.85
7058.00,0.85
7056.00,0.85
7054.00,0.85
7052.00,0.85
7050.00,0.85
7048.00,0.85
7046.00,0.85
7044.00,0.85
7042.00,0.85
7040.00,0.85
7038.00,0.85
7036.00,0.85
7034.00,0.85
7032.00,0.85
7030.00,0.85
7028.00,0.85
7026.00,0.85
7024.00,0.85
7022.00,0.84
7020.00,0.84
7018.00,0.85
7016.00,0.85
7014.00,0.85
7012.00,0.85
7010.00,0.85
7008.00,0.85
7006.00,0.84
7004.00,0.84
7002.00,0.84
7000.00,0.84
6998.00,0.84
6996.00,0.84
6994.00,0.84
6992.00,0.84
6990.00,0.84
6988.00,0.84
6986.00,0.84
6984.00,0.84
6982.00,0.84
6980.00,0.84
6978.00,0.84
6976.00,0.84
6974.00,0.84
6972.00,0.83
6970.00,0.83
6968.00,0.83
6966.00,0.83
6964.00,0.83
6962.00,0.83
6960.00,0.83
6958.00,0.83
6956.00,0.83
6954.00,0.83
6952.00,0.83
6950.00,0.83
6948.00,0.83
6946.00,0.83
6944.00,0.83
6942.00,0.83
6940.00,0.83
6938.00,0.83
6936.00,0.83
