创建为新数据集,样品 1606 用户 Administrator 日期 星期日, 三月 12 2017
cm-1,%T
10000.00,0.86
9998.00,0.86
9996.00,0.86
9994.00,0.86
9992.00,0.86
9990.00,0.86
9988.00,0.86
9986.00,0.86
9984.00,0.86
9982.00,0.85
9980.00,0.85
9978.00,0.85
9976.00,0.84
9974.00,0.85
9972.00,0.85
9970.00,0.85
9968.00,0.86
9966.00,0.86
9964.00,0.86
9962.00,0.85
9960.00,0.85
9958.00,0.84
9956.00,0.83
9954.00,0.83
9952.00,0.82
9950.00,0.82
9948.00,0.81
9946.00,0.82
9944.00,0.82
9942.00,0.83
9940.00,0.84
9938.00,0.84
9936.00,0.85
9934.00,0.86
9932.00,0.86
9930.00,0.86
9928.00,0.86
9926.00,0.87
9924.00,0.87
9922.00,0.86
9920.00,0.86
9918.00,0.86
9916.00,0.86
9914.00,0.86
9912.00,0.86
9910.00,0.85
9908.00,0.85
9906.00,0.85
9904.00,0.85
9902.00,0.85
9900.00,0.84
9898.00,0.84
9896.00,0.84
9894.00,0.84
9892.00,0.83
9890.00,0.83
9888.00,0.83
9886.00,0.82
9884.00,0.82
9882.00,0.82
9880.00,0.83
9878.00,0.83
9876.00,0.83
9874.00,0.84
9872.00,0.84
9870.00,0.85
9868.00,0.85
9866.00,0.85
9864.00,0.84
9862.00,0.84
9860.00,0.83
9858.00,0.83
9856.00,0.83
9854.00,0.83
9852.00,0.83
9850.00,0.84
9848.00,0.85
9846.00,0.86
9844.00,0.86
9842.00,0.87
9840.00,0.87
9838.00,0.87
9836.00,0.86
9834.00,0.86
9832.00,0.85
9830.00,0.85
9828.00,0.84
9826.00,0.84
9824.00,0.84
9822.00,0.84
9820.00,0.84
9818.00,0.85
9816.00,0.85
9814.00,0.85
9812.00,0.86
9810.00,0.86
9808.00,0.86
9806.00,0.86
9804.00,0.86
9802.00,0.86
9800.00,0.86
9798.00,0.85
9796.00,0.85
9794.00,0.85
9792.00,0.84
9790.00,0.83
9788.00,0.83
9786.00,0.82
9784.00,0.82
9782.00,0.82
9780.00,0.83
9778.00,0.83
9776.00,0.84
9774.00,0.85
9772.00,0.86
9770.00,0.87
9768.00,0.88
9766.00,0.89
9764.00,0.89
9762.00,0.89
9760.00,0.88
9758.00,0.87
9756.00,0.87
9754.00,0.86
9752.00,0.85
9750.00,0.84
9748.00,0.83
9746.00,0.82
9744.00,0.82
9742.00,0.82
9740.00,0.82
9738.00,0.82
9736.00,0.82
9734.00,0.83
9732.00,0.83
9730.00,0.84
9728.00,0.84
9726.00,0.85
9724.00,0.85
9722.00,0.85
9720.00,0.85
9718.00,0.85
9716.00,0.86
9714.00,0.86
9712.00,0.86
9710.00,0.86
9708.00,0.86
9706.00,0.86
9704.00,0.86
9702.00,0.86
9700.00,0.86
9698.00,0.86
9696.00,0.85
9694.00,0.85
9692.00,0.85
9690.00,0.84
9688.00,0.84
9686.00,0.84
9684.00,0.84
9682.00,0.84
9680.00,0.84
9678.00,0.84
9676.00,0.84
9674.00,0.84
9672.00,0.84
9670.00,0.84
9668.00,0.84
9666.00,0.84
9664.00,0.84
9662.00,0.84
9660.00,0.84
9658.00,0.84
9656.00,0.84
9654.00,0.84
9652.00,0.84
9650.00,0.84
9648.00,0.84
9646.00,0.84
9644.00,0.84
9642.00,0.84
9640.00,0.84
9638.00,0.84
9636.00,0.84
9634.00,0.84
9632.00,0.84
9630.00,0.84
9628.00,0.84
9626.00,0.84
9624.00,0.85
9622.00,0.85
9620.00,0.85
9618.00,0.85
9616.00,0.86
9614.00,0.86
9612.00,0.86
9610.00,0.86
9608.00,0.86
9606.00,0.86
9604.00,0.85
9602.00,0.85
9600.00,0.85
9598.00,0.84
9596.00,0.84
9594.00,0.84
9592.00,0.84
9590.00,0.84
9588.00,0.84
9586.00,0.84
9584.00,0.84
9582.00,0.84
9580.00,0.84
9578.00,0.85
9576.00,0.85
9574.00,0.86
9572.00,0.86
9570.00,0.86
9568.00,0.87
9566.00,0.87
9564.00,0.87
9562.00,0.87
9560.00,0.87
9558.00,0.86
9556.00,0.86
9554.00,0.85
9552.00,0.85
9550.00,0.84
9548.00,0.84
9546.00,0.83
9544.00,0.83
9542.00,0.83
9540.00,0.83
9538.00,0.84
9536.00,0.84
9534.00,0.84
9532.00,0.85
9530.00,0.85
9528.00,0.85
9526.00,0.85
9524.00,0.85
9522.00,0.85
9520.00,0.85
9518.00,0.85
9516.00,0.85
9514.00,0.84
9512.00,0.84
9510.00,0.85
9508.00,0.85
9506.00,0.85
9504.00,0.85
9502.00,0.86
9500.00,0.86
9498.00,0.87
9496.00,0.87
9494.00,0.87
9492.00,0.87
9490.00,0.86
9488.00,0.86
9486.00,0.86
9484.00,0.86
9482.00,0.85
9480.00,0.85
9478.00,0.84
9476.00,0.84
9474.00,0.84
9472.00,0.83
9470.00,0.83
9468.00,0.83
9466.00,0.83
9464.00,0.84
9462.00,0.84
9460.00,0.84
9458.00,0.84
9456.00,0.84
9454.00,0.84
9452.00,0.84
9450.00,0.84
9448.00,0.84
9446.00,0.84
9444.00,0.84
9442.00,0.84
9440.00,0.84
9438.00,0.83
9436.00,0.83
9434.00,0.83
9432.00,0.83
9430.00,0.82
9428.00,0.83
9426.00,0.83
9424.00,0.83
9422.00,0.83
9420.00,0.84
9418.00,0.84
9416.00,0.85
9414.00,0.85
9412.00,0.86
9410.00,0.86
9408.00,0.87
9406.00,0.87
9404.00,0.87
9402.00,0.87
9400.00,0.87
9398.00,0.87
9396.00,0.87
9394.00,0.87
9392.00,0.86
9390.00,0.86
9388.00,0.85
9386.00,0.85
9384.00,0.85
9382.00,0.84
9380.00,0.84
9378.00,0.84
9376.00,0.83
9374.00,0.83
9372.00,0.83
9370.00,0.83
9368.00,0.83
9366.00,0.83
9364.00,0.84
9362.00,0.84
9360.00,0.85
9358.00,0.86
9356.00,0.86
9354.00,0.87
9352.00,0.87
9350.00,0.87
9348.00,0.87
9346.00,0.86
9344.00,0.86
9342.00,0.86
9340.00,0.85
9338.00,0.85
9336.00,0.85
9334.00,0.85
9332.00,0.86
9330.00,0.86
9328.00,0.86
9326.00,0.86
9324.00,0.86
9322.00,0.86
9320.00,0.85
9318.00,0.85
9316.00,0.86
9314.00,0.86
9312.00,0.86
9310.00,0.86
9308.00,0.86
9306.00,0.86
9304.00,0.86
9302.00,0.86
9300.00,0.85
9298.00,0.85
9296.00,0.85
9294.00,0.85
9292.00,0.84
9290.00,0.84
9288.00,0.84
9286.00,0.84
9284.00,0.84
9282.00,0.83
9280.00,0.83
9278.00,0.83
9276.00,0.83
9274.00,0.83
9272.00,0.83
9270.00,0.83
9268.00,0.83
9266.00,0.83
9264.00,0.83
9262.00,0.83
9260.00,0.84
9258.00,0.84
9256.00,0.84
9254.00,0.85
9252.00,0.85
9250.00,0.85
9248.00,0.85
9246.00,0.85
9244.00,0.85
9242.00,0.85
9240.00,0.85
9238.00,0.84
9236.00,0.84
9234.00,0.84
9232.00,0.84
9230.00,0.84
9228.00,0.83
9226.00,0.83
9224.00,0.83
9222.00,0.83
9220.00,0.84
9218.00,0.84
9216.00,0.84
9214.00,0.84
9212.00,0.84
9210.00,0.84
9208.00,0.84
9206.00,0.84
9204.00,0.83
9202.00,0.83
9200.00,0.83
9198.00,0.83
9196.00,0.83
9194.00,0.83
9192.00,0.83
9190.00,0.84
9188.00,0.84
9186.00,0.84
9184.00,0.84
9182.00,0.84
9180.00,0.84
9178.00,0.84
9176.00,0.83
9174.00,0.83
9172.00,0.83
9170.00,0.84
9168.00,0.84
9166.00,0.84
9164.00,0.84
9162.00,0.84
9160.00,0.84
9158.00,0.84
9156.00,0.84
9154.00,0.85
9152.00,0.85
9150.00,0.85
9148.00,0.85
9146.00,0.85
9144.00,0.85
9142.00,0.85
9140.00,0.85
9138.00,0.85
9136.00,0.85
9134.00,0.85
9132.00,0.84
9130.00,0.84
9128.00,0.84
9126.00,0.83
9124.00,0.83
9122.00,0.83
9120.00,0.83
9118.00,0.83
9116.00,0.83
9114.00,0.83
9112.00,0.83
9110.00,0.84
9108.00,0.84
9106.00,0.84
9104.00,0.84
9102.00,0.85
9100.00,0.85
9098.00,0.85
9096.00,0.85
9094.00,0.86
9092.00,0.85
9090.00,0.85
9088.00,0.85
9086.00,0.85
9084.00,0.84
9082.00,0.84
9080.00,0.84
9078.00,0.84
9076.00,0.84
9074.00,0.84
9072.00,0.84
9070.00,0.84
9068.00,0.84
9066.00,0.84
9064.00,0.84
9062.00,0.84
9060.00,0.84
9058.00,0.84
9056.00,0.84
9054.00,0.84
9052.00,0.84
9050.00,0.84
9048.00,0.84
9046.00,0.84
9044.00,0.83
9042.00,0.83
9040.00,0.83
9038.00,0.83
9036.00,0.83
9034.00,0.83
9032.00,0.83
9030.00,0.84
9028.00,0.84
9026.00,0.84
9024.00,0.84
9022.00,0.83
9020.00,0.83
9018.00,0.84
9016.00,0.84
9014.00,0.84
9012.00,0.84
9010.00,0.85
9008.00,0.85
9006.00,0.85
9004.00,0.85
9002.00,0.85
9000.00,0.86
8998.00,0.85
8996.00,0.85
8994.00,0.85
8992.00,0.85
8990.00,0.85
8988.00,0.85
8986.00,0.85
8984.00,0.85
8982.00,0.85
8980.00,0.85
8978.00,0.84
8976.00,0.84
8974.00,0.84
8972.00,0.84
8970.00,0.84
8968.00,0.84
8966.00,0.84
8964.00,0.84
8962.00,0.83
8960.00,0.83
8958.00,0.83
8956.00,0.83
8954.00,0.83
8952.00,0.83
8950.00,0.83
8948.00,0.84
8946.00,0.84
8944.00,0.84
8942.00,0.84
8940.00,0.84
8938.00,0.84
8936.00,0.85
8934.00,0.85
8932.00,0.85
8930.00,0.85
8928.00,0.85
8926.00,0.85
8924.00,0.85
8922.00,0.85
8920.00,0.85
8918.00,0.85
8916.00,0.85
8914.00,0.85
8912.00,0.84
8910.00,0.84
8908.00,0.84
8906.00,0.84
8904.00,0.84
8902.00,0.84
8900.00,0.84
8898.00,0.85
8896.00,0.85
8894.00,0.86
8892.00,0.86
8890.00,0.86
8888.00,0.86
8886.00,0.86
8884.00,0.85
8882.00,0.85
8880.00,0.85
8878.00,0.85
8876.00,0.84
8874.00,0.84
8872.00,0.84
8870.00,0.84
8868.00,0.84
8866.00,0.84
8864.00,0.84
8862.00,0.84
8860.00,0.84
8858.00,0.84
8856.00,0.85
8854.00,0.85
8852.00,0.85
8850.00,0.85
8848.00,0.86
8846.00,0.86
8844.00,0.86
8842.00,0.87
8840.00,0.87
8838.00,0.87
8836.00,0.86
8834.00,0.86
8832.00,0.86
8830.00,0.86
8828.00,0.85
8826.00,0.85
8824.00,0.85
8822.00,0.85
8820.00,0.86
8818.00,0.86
8816.00,0.86
8814.00,0.86
8812.00,0.86
8810.00,0.85
8808.00,0.85
8806.00,0.85
8804.00,0.85
8802.00,0.85
8800.00,0.86
8798.00,0.86
8796.00,0.86
8794.00,0.86
8792.00,0.86
8790.00,0.86
8788.00,0.86
8786.00,0.86
8784.00,0.85
8782.00,0.85
8780.00,0.85
8778.00,0.85
8776.00,0.85
8774.00,0.85
8772.00,0.85
8770.00,0.85
8768.00,0.85
8766.00,0.85
8764.00,0.85
8762.00,0.85
8760.00,0.85
8758.00,0.85
8756.00,0.85
8754.00,0.84
8752.00,0.84
8750.00,0.84
8748.00,0.84
8746.00,0.84
8744.00,0.84
8742.00,0.84
8740.00,0.84
8738.00,0.84
8736.00,0.84
8734.00,0.84
8732.00,0.84
8730.00,0.84
8728.00,0.84
8726.00,0.84
8724.00,0.84
8722.00,0.84
8720.00,0.84
8718.00,0.85
8716.00,0.85
8714.00,0.85
8712.00,0.85
8710.00,0.85
8708.00,0.85
8706.00,0.85
8704.00,0.85
8702.00,0.85
8700.00,0.86
8698.00,0.86
8696.00,0.86
8694.00,0.86
8692.00,0.86
8690.00,0.86
8688.00,0.85
8686.00,0.85
8684.00,0.85
8682.00,0.85
8680.00,0.85
8678.00,0.85
8676.00,0.85
8674.00,0.85
8672.00,0.85
8670.00,0.85
8668.00,0.85
8666.00,0.85
8664.00,0.85
8662.00,0.85
8660.00,0.85
8658.00,0.85
8656.00,0.85
8654.00,0.85
8652.00,0.85
8650.00,0.85
8648.00,0.85
8646.00,0.85
8644.00,0.85
8642.00,0.85
8640.00,0.85
8638.00,0.85
8636.00,0.84
8634.00,0.84
8632.00,0.84
8630.00,0.84
8628.00,0.84
8626.00,0.84
8624.00,0.84
8622.00,0.84
8620.00,0.84
8618.00,0.84
8616.00,0.84
8614.00,0.84
8612.00,0.84
8610.00,0.84
8608.00,0.84
8606.00,0.84
8604.00,0.84
8602.00,0.84
8600.00,0.84
8598.00,0.84
8596.00,0.84
8594.00,0.84
8592.00,0.84
8590.00,0.84
8588.00,0.84
8586.00,0.84
8584.00,0.84
8582.00,0.84
8580.00,0.85
8578.00,0.85
8576.00,0.85
8574.00,0.85
8572.00,0.85
8570.00,0.85
8568.00,0.85
8566.00,0.85
8564.00,0.85
8562.00,0.84
8560.00,0.84
8558.00,0.84
8556.00,0.84
8554.00,0.83
8552.00,0.83
8550.00,0.83
8548.00,0.83
8546.00,0.83
8544.00,0.83
8542.00,0.83
8540.00,0.83
8538.00,0.84
8536.00,0.84
8534.00,0.84
8532.00,0.84
8530.00,0.84
8528.00,0.84
8526.00,0.84
8524.00,0.83
8522.00,0.83
8520.00,0.83
8518.00,0.83
8516.00,0.84
8514.00,0.84
8512.00,0.84
8510.00,0.84
8508.00,0.84
8506.00,0.84
8504.00,0.84
8502.00,0.84
8500.00,0.84
8498.00,0.84
8496.00,0.84
8494.00,0.84
8492.00,0.84
8490.00,0.84
8488.00,0.84
8486.00,0.83
8484.00,0.83
8482.00,0.83
8480.00,0.83
8478.00,0.83
8476.00,0.82
8474.00,0.82
8472.00,0.82
8470.00,0.82
8468.00,0.82
8466.00,0.82
8464.00,0.82
8462.00,0.83
8460.00,0.83
8458.00,0.83
8456.00,0.83
8454.00,0.83
8452.00,0.84
8450.00,0.84
8448.00,0.84
8446.00,0.84
8444.00,0.84
8442.00,0.84
8440.00,0.84
8438.00,0.84
8436.00,0.84
8434.00,0.84
8432.00,0.84
8430.00,0.84
8428.00,0.83
8426.00,0.83
8424.00,0.83
8422.00,0.83
8420.00,0.83
8418.00,0.83
8416.00,0.83
8414.00,0.83
8412.00,0.83
8410.00,0.83
8408.00,0.83
8406.00,0.83
8404.00,0.83
8402.00,0.83
8400.00,0.84
8398.00,0.84
8396.00,0.84
8394.00,0.84
8392.00,0.84
8390.00,0.84
8388.00,0.84
8386.00,0.83
8384.00,0.83
8382.00,0.83
8380.00,0.83
8378.00,0.83
8376.00,0.83
8374.00,0.83
8372.00,0.83
8370.00,0.83
8368.00,0.83
8366.00,0.83
8364.00,0.83
8362.00,0.83
8360.00,0.83
8358.00,0.83
8356.00,0.83
8354.00,0.83
8352.00,0.83
8350.00,0.83
8348.00,0.83
8346.00,0.83
8344.00,0.83
8342.00,0.83
8340.00,0.83
8338.00,0.83
8336.00,0.83
8334.00,0.83
8332.00,0.83
8330.00,0.83
8328.00,0.83
8326.00,0.83
8324.00,0.83
8322.00,0.83
8320.00,0.83
8318.00,0.83
8316.00,0.84
8314.00,0.84
8312.00,0.84
8310.00,0.84
8308.00,0.84
8306.00,0.84
8304.00,0.84
8302.00,0.84
8300.00,0.84
8298.00,0.84
8296.00,0.84
8294.00,0.84
8292.00,0.84
8290.00,0.85
8288.00,0.85
8286.00,0.85
8284.00,0.85
8282.00,0.85
8280.00,0.85
8278.00,0.85
8276.00,0.85
8274.00,0.85
8272.00,0.85
8270.00,0.85
8268.00,0.85
8266.00,0.85
8264.00,0.85
8262.00,0.85
8260.00,0.85
8258.00,0.85
8256.00,0.85
8254.00,0.85
8252.00,0.84
8250.00,0.84
8248.00,0.84
8246.00,0.84
8244.00,0.84
8242.00,0.84
8240.00,0.84
8238.00,0.84
8236.00,0.84
8234.00,0.84
8232.00,0.84
8230.00,0.84
8228.00,0.85
8226.00,0.85
8224.00,0.85
8222.00,0.85
8220.00,0.85
8218.00,0.85
8216.00,0.85
8214.00,0.85
8212.00,0.85
8210.00,0.85
8208.00,0.84
8206.00,0.84
8204.00,0.84
8202.00,0.84
8200.00,0.84
8198.00,0.84
8196.00,0.85
8194.00,0.85
8192.00,0.85
8190.00,0.85
8188.00,0.85
8186.00,0.85
8184.00,0.84
8182.00,0.84
8180.00,0.84
8178.00,0.84
8176.00,0.84
8174.00,0.84
8172.00,0.84
8170.00,0.84
8168.00,0.83
8166.00,0.83
8164.00,0.83
8162.00,0.83
8160.00,0.83
8158.00,0.83
8156.00,0.84
8154.00,0.84
8152.00,0.84
8150.00,0.85
8148.00,0.85
8146.00,0.85
8144.00,0.85
8142.00,0.85
8140.00,0.85
8138.00,0.85
8136.00,0.85
8134.00,0.85
8132.00,0.85
8130.00,0.85
8128.00,0.85
8126.00,0.85
8124.00,0.85
8122.00,0.86
8120.00,0.86
8118.00,0.86
8116.00,0.86
8114.00,0.85
8112.00,0.85
8110.00,0.85
8108.00,0.85
8106.00,0.85
8104.00,0.85
8102.00,0.85
8100.00,0.85
8098.00,0.85
8096.00,0.85
8094.00,0.85
8092.00,0.85
8090.00,0.85
8088.00,0.85
8086.00,0.85
8084.00,0.85
8082.00,0.86
8080.00,0.86
8078.00,0.86
8076.00,0.86
8074.00,0.86
8072.00,0.86
8070.00,0.86
8068.00,0.86
8066.00,0.86
8064.00,0.86
8062.00,0.86
8060.00,0.86
8058.00,0.86
8056.00,0.86
8054.00,0.86
8052.00,0.85
8050.00,0.85
8048.00,0.85
8046.00,0.85
8044.00,0.85
8042.00,0.85
8040.00,0.85
8038.00,0.85
8036.00,0.85
8034.00,0.85
8032.00,0.85
8030.00,0.84
8028.00,0.84
8026.00,0.84
8024.00,0.84
8022.00,0.84
8020.00,0.84
8018.00,0.84
8016.00,0.84
8014.00,0.85
8012.00,0.85
8010.00,0.85
8008.00,0.85
8006.00,0.85
8004.00,0.85
8002.00,0.85
8000.00,0.85
7998.00,0.85
7996.00,0.85
7994.00,0.85
7992.00,0.85
7990.00,0.85
7988.00,0.85
7986.00,0.85
7984.00,0.84
7982.00,0.84
7980.00,0.84
7978.00,0.84
7976.00,0.84
7974.00,0.84
7972.00,0.84
7970.00,0.85
7968.00,0.85
7966.00,0.85
7964.00,0.85
7962.00,0.85
7960.00,0.85
7958.00,0.85
7956.00,0.85
7954.00,0.85
7952.00,0.85
7950.00,0.85
7948.00,0.85
7946.00,0.85
7944.00,0.85
7942.00,0.85
7940.00,0.85
7938.00,0.85
7936.00,0.85
7934.00,0.85
7932.00,0.85
7930.00,0.85
7928.00,0.86
7926.00,0.86
7924.00,0.86
7922.00,0.86
7920.00,0.86
7918.00,0.86
7916.00,0.86
7914.00,0.86
7912.00,0.86
7910.00,0.86
7908.00,0.86
7906.00,0.86
7904.00,0.86
7902.00,0.85
7900.00,0.85
7898.00,0.85
7896.00,0.85
7894.00,0.85
7892.00,0.85
7890.00,0.85
7888.00,0.85
7886.00,0.85
7884.00,0.85
7882.00,0.85
7880.00,0.85
7878.00,0.85
7876.00,0.85
7874.00,0.85
7872.00,0.85
7870.00,0.85
7868.00,0.85
7866.00,0.85
7864.00,0.85
7862.00,0.85
7860.00,0.84
7858.00,0.84
7856.00,0.84
7854.00,0.84
7852.00,0.84
7850.00,0.85
7848.00,0.85
7846.00,0.85
7844.00,0.85
7842.00,0.85
7840.00,0.85
7838.00,0.85
7836.00,0.85
7834.00,0.85
7832.00,0.85
7830.00,0.85
7828.00,0.85
7826.00,0.85
7824.00,0.85
7822.00,0.85
7820.00,0.86
7818.00,0.86
7816.00,0.86
7814.00,0.86
7812.00,0.86
7810.00,0.86
7808.00,0.86
7806.00,0.86
7804.00,0.86
7802.00,0.86
7800.00,0.86
7798.00,0.86
7796.00,0.86
7794.00,0.86
7792.00,0.86
7790.00,0.86
7788.00,0.86
7786.00,0.86
7784.00,0.85
7782.00,0.85
7780.00,0.85
7778.00,0.85
7776.00,0.84
7774.00,0.84
7772.00,0.84
7770.00,0.84
7768.00,0.84
7766.00,0.84
7764.00,0.84
7762.00,0.84
7760.00,0.85
7758.00,0.85
7756.00,0.85
7754.00,0.85
7752.00,0.85
7750.00,0.85
7748.00,0.85
7746.00,0.85
7744.00,0.85
7742.00,0.85
7740.00,0.86
7738.00,0.86
7736.00,0.86
7734.00,0.86
7732.00,0.85
7730.00,0.85
7728.00,0.85
7726.00,0.85
7724.00,0.85
7722.00,0.85
7720.00,0.86
7718.00,0.86
7716.00,0.86
7714.00,0.86
7712.00,0.86
7710.00,0.86
7708.00,0.86
7706.00,0.86
7704.00,0.86
7702.00,0.86
7700.00,0.86
7698.00,0.86
7696.00,0.86
7694.00,0.86
7692.00,0.86
7690.00,0.85
7688.00,0.85
7686.00,0.85
7684.00,0.85
7682.00,0.85
7680.00,0.85
7678.00,0.85
7676.00,0.85
7674.00,0.85
7672.00,0.85
7670.00,0.85
7668.00,0.86
7666.00,0.86
7664.00,0.86
7662.00,0.86
7660.00,0.86
7658.00,0.86
7656.00,0.86
7654.00,0.86
7652.00,0.86
7650.00,0.86
7648.00,0.86
7646.00,0.86
7644.00,0.86
7642.00,0.86
7640.00,0.86
7638.00,0.86
7636.00,0.86
7634.00,0.86
7632.00,0.86
7630.00,0.86
7628.00,0.86
7626.00,0.85
7624.00,0.85
7622.00,0.85
7620.00,0.85
7618.00,0.84
7616.00,0.85
7614.00,0.85
7612.00,0.85
7610.00,0.85
7608.00,0.85
7606.00,0.85
7604.00,0.85
7602.00,0.85
7600.00,0.85
7598.00,0.85
7596.00,0.85
7594.00,0.85
7592.00,0.85
7590.00,0.86
7588.00,0.86
7586.00,0.86
7584.00,0.86
7582.00,0.86
7580.00,0.86
7578.00,0.86
7576.00,0.86
7574.00,0.86
7572.00,0.86
7570.00,0.86
7568.00,0.86
7566.00,0.86
7564.00,0.85
7562.00,0.85
7560.00,0.85
7558.00,0.85
7556.00,0.85
7554.00,0.85
7552.00,0.85
7550.00,0.85
7548.00,0.85
7546.00,0.85
7544.00,0.85
7542.00,0.85
7540.00,0.85
7538.00,0.86
7536.00,0.86
7534.00,0.86
7532.00,0.86
7530.00,0.86
7528.00,0.86
7526.00,0.86
7524.00,0.86
7522.00,0.86
7520.00,0.86
7518.00,0.86
7516.00,0.86
7514.00,0.86
7512.00,0.86
7510.00,0.86
7508.00,0.86
7506.00,0.86
7504.00,0.85
7502.00,0.85
7500.00,0.85
7498.00,0.85
7496.00,0.85
7494.00,0.85
7492.00,0.85
7490.00,0.85
7488.00,0.85
7486.00,0.85
7484.00,0.85
7482.00,0.85
7480.00,0.85
7478.00,0.85
7476.00,0.85
7474.00,0.84
7472.00,0.84
7470.00,0.84
7468.00,0.85
7466.00,0.85
7464.00,0.85
7462.00,0.85
7460.00,0.85
7458.00,0.85
7456.00,0.85
7454.00,0.85
7452.00,0.85
7450.00,0.85
7448.00,0.85
7446.00,0.85
7444.00,0.85
7442.00,0.85
7440.00,0.85
7438.00,0.85
7436.00,0.85
7434.00,0.85
7432.00,0.85
7430.00,0.85
7428.00,0.85
7426.00,0.85
7424.00,0.85
7422.00,0.84
7420.00,0.84
7418.00,0.84
7416.00,0.85
7414.00,0.85
7412.00,0.85
7410.00,0.85
7408.00,0.85
7406.00,0.85
7404.00,0.85
7402.00,0.85
7400.00,0.85
7398.00,0.85
7396.00,0.85
7394.00,0.85
7392.00,0.85
7390.00,0.85
7388.00,0.85
7386.00,0.85
7384.00,0.85
7382.00,0.85
7380.00,0.85
7378.00,0.85
7376.00,0.85
7374.00,0.85
7372.00,0.85
7370.00,0.85
7368.00,0.85
7366.00,0.85
7364.00,0.85
7362.00,0.85
7360.00,0.85
7358.00,0.85
7356.00,0.85
7354.00,0.85
7352.00,0.85
7350.00,0.85
7348.00,0.85
7346.00,0.85
7344.00,0.85
7342.00,0.85
7340.00,0.85
7338.00,0.84
7336.00,0.84
7334.00,0.84
7332.00,0.84
7330.00,0.84
7328.00,0.84
7326.00,0.84
7324.00,0.84
7322.00,0.84
7320.00,0.84
7318.00,0.84
7316.00,0.84
7314.00,0.85
7312.00,0.85
7310.00,0.84
7308.00,0.84
7306.00,0.84
7304.00,0.84
7302.00,0.84
7300.00,0.84
7298.00,0.84
7296.00,0.84
7294.00,0.84
7292.00,0.84
7290.00,0.84
7288.00,0.84
7286.00,0.84
7284.00,0.84
7282.00,0.84
7280.00,0.84
7278.00,0.85
7276.00,0.85
7274.00,0.85
7272.00,0.85
7270.00,0.85
7268.00,0.85
7266.00,0.85
7264.00,0.85
7262.00,0.84
7260.00,0.84
7258.00,0.84
7256.00,0.84
7254.00,0.84
7252.00,0.84
7250.00,0.84
7248.00,0.84
7246.00,0.84
7244.00,0.83
7242.00,0.83
7240.00,0.83
7238.00,0.83
7236.00,0.83
7234.00,0.83
7232.00,0.83
7230.00,0.83
7228.00,0.83
7226.00,0.83
7224.00,0.83
7222.00,0.83
7220.00,0.83
7218.00,0.83
7216.00,0.83
7214.00,0.83
7212.00,0.83
7210.00,0.83
7208.00,0.83
7206.00,0.83
7204.00,0.83
7202.00,0.83
7200.00,0.83
7198.00,0.83
7196.00,0.83
7194.00,0.83
7192.00,0.83
7190.00,0.82
7188.00,0.82
7186.00,0.82
7184.00,0.82
7182.00,0.82
7180.00,0.82
7178.00,0.82
7176.00,0.82
7174.00,0.81
7172.00,0.81
7170.00,0.81
7168.00,0.81
7166.00,0.81
7164.00,0.81
7162.00,0.81
7160.00,0.81
7158.00,0.81
7156.00,0.81
7154.00,0.80
7152.00,0.80
7150.00,0.80
7148.00,0.80
7146.00,0.80
7144.00,0.80
7142.00,0.81
7140.00,0.81
7138.00,0.81
7136.00,0.81
7134.00,0.81
7132.00,0.81
7130.00,0.81
7128.00,0.81
7126.00,0.81
7124.00,0.80
7122.00,0.80
7120.00,0.80
7118.00,0.80
7116.00,0.80
7114.00,0.80
7112.00,0.80
7110.00,0.80
7108.00,0.80
7106.00,0.80
7104.00,0.80
7102.00,0.80
7100.00,0.80
7098.00,0.80
7096.00,0.80
7094.00,0.80
7092.00,0.80
7090.00,0.80
7088.00,0.80
7086.00,0.80
7084.00,0.80
7082.00,0.80
7080.00,0.80
7078.00,0.80
7076.00,0.80
7074.00,0.79
7072.00,0.79
7070.00,0.79
7068.00,0.79
7066.00,0.79
7064.00,0.79
7062.00,0.79
7060.00,0.79
7058.00,0.79
7056.00,0.79
7054.00,0.79
7052.00,0.79
7050.00,0.79
7048.00,0.79
7046.00,0.79
7044.00,0.79
7042.00,0.79
7040.00,0.79
7038.00,0.78
7036.00,0.78
7034.00,0.78
7032.00,0.79
7030.00,0.79
7028.00,0.79
7026.00,0.79
7024.00,0.79
7022.00,0.79
7020.00,0.79
7018.00,0.79
7016.00,0.79
7014.00,0.79
7012.00,0.79
7010.00,0.79
7008.00,0.79
7006.00,0.79
7004.00,0.79
7002.00,0.79
7000.00,0.79
6998.00,0.79
6996.00,0.79
6994.00,0.79
6992.00,0.79
6990.00,0.79
6988.00,0.79
6986.00,0.79
6984.00,0.79
6982.00,0.79
6980.00,0.79
6978.00,0.78
6976.00,0.78
6974.00,0.78
6972.00,0.78
6970.00,0.78
6968.00,0.78
6966.00,0.78
6964.00,0.78
6962.00,0.78
6960.00,0.78
6958.00,0.78
6956.00,0.78
6954.00,0.78
6952.00,0.78
6950.00,0.78
6948.00,0.78
6946.00,0.78
6944.00,0.78
6942.00,0.78
6940.00,0.78
6938.00,0.78
6936.00,0.79
