创建为新数据集,样品 1632 用户 Administrator 日期 星期一, 三月 13 2017
cm-1,%T
10000.00,0.88
9998.00,0.89
9996.00,0.90
9994.00,0.90
9992.00,0.90
9990.00,0.90
9988.00,0.89
9986.00,0.89
9984.00,0.88
9982.00,0.87
9980.00,0.87
9978.00,0.86
9976.00,0.86
9974.00,0.86
9972.00,0.86
9970.00,0.85
9968.00,0.85
9966.00,0.85
9964.00,0.85
9962.00,0.85
9960.00,0.85
9958.00,0.85
9956.00,0.84
9954.00,0.84
9952.00,0.84
9950.00,0.83
9948.00,0.83
9946.00,0.84
9944.00,0.84
9942.00,0.85
9940.00,0.85
9938.00,0.86
9936.00,0.86
9934.00,0.86
9932.00,0.86
9930.00,0.86
9928.00,0.85
9926.00,0.85
9924.00,0.85
9922.00,0.85
9920.00,0.85
9918.00,0.85
9916.00,0.86
9914.00,0.86
9912.00,0.87
9910.00,0.87
9908.00,0.87
9906.00,0.87
9904.00,0.88
9902.00,0.88
9900.00,0.88
9898.00,0.88
9896.00,0.89
9894.00,0.89
9892.00,0.89
9890.00,0.88
9888.00,0.88
9886.00,0.87
9884.00,0.87
9882.00,0.86
9880.00,0.86
9878.00,0.86
9876.00,0.86
9874.00,0.86
9872.00,0.86
9870.00,0.86
9868.00,0.86
9866.00,0.86
9864.00,0.86
9862.00,0.86
9860.00,0.85
9858.00,0.85
9856.00,0.85
9854.00,0.84
9852.00,0.84
9850.00,0.84
9848.00,0.84
9846.00,0.84
9844.00,0.84
9842.00,0.84
9840.00,0.84
9838.00,0.84
9836.00,0.84
9834.00,0.84
9832.00,0.84
9830.00,0.85
9828.00,0.85
9826.00,0.86
9824.00,0.86
9822.00,0.86
9820.00,0.86
9818.00,0.86
9816.00,0.86
9814.00,0.86
9812.00,0.86
9810.00,0.85
9808.00,0.85
9806.00,0.85
9804.00,0.86
9802.00,0.86
9800.00,0.86
9798.00,0.86
9796.00,0.86
9794.00,0.86
9792.00,0.86
9790.00,0.86
9788.00,0.86
9786.00,0.86
9784.00,0.85
9782.00,0.85
9780.00,0.85
9778.00,0.86
9776.00,0.86
9774.00,0.86
9772.00,0.86
9770.00,0.86
9768.00,0.86
9766.00,0.85
9764.00,0.85
9762.00,0.84
9760.00,0.84
9758.00,0.84
9756.00,0.84
9754.00,0.84
9752.00,0.84
9750.00,0.85
9748.00,0.85
9746.00,0.85
9744.00,0.85
9742.00,0.85
9740.00,0.85
9738.00,0.84
9736.00,0.83
9734.00,0.83
9732.00,0.82
9730.00,0.82
9728.00,0.82
9726.00,0.82
9724.00,0.82
9722.00,0.83
9720.00,0.83
9718.00,0.84
9716.00,0.85
9714.00,0.85
9712.00,0.86
9710.00,0.86
9708.00,0.85
9706.00,0.85
9704.00,0.85
9702.00,0.85
9700.00,0.85
9698.00,0.85
9696.00,0.85
9694.00,0.86
9692.00,0.86
9690.00,0.87
9688.00,0.87
9686.00,0.88
9684.00,0.88
9682.00,0.89
9680.00,0.89
9678.00,0.89
9676.00,0.89
9674.00,0.89
9672.00,0.89
9670.00,0.89
9668.00,0.88
9666.00,0.88
9664.00,0.88
9662.00,0.88
9660.00,0.87
9658.00,0.87
9656.00,0.87
9654.00,0.87
9652.00,0.87
9650.00,0.87
9648.00,0.86
9646.00,0.87
9644.00,0.87
9642.00,0.87
9640.00,0.86
9638.00,0.86
9636.00,0.86
9634.00,0.85
9632.00,0.85
9630.00,0.84
9628.00,0.84
9626.00,0.84
9624.00,0.83
9622.00,0.83
9620.00,0.83
9618.00,0.84
9616.00,0.84
9614.00,0.84
9612.00,0.84
9610.00,0.84
9608.00,0.84
9606.00,0.85
9604.00,0.85
9602.00,0.85
9600.00,0.85
9598.00,0.85
9596.00,0.85
9594.00,0.85
9592.00,0.85
9590.00,0.85
9588.00,0.85
9586.00,0.85
9584.00,0.85
9582.00,0.86
9580.00,0.86
9578.00,0.87
9576.00,0.87
9574.00,0.88
9572.00,0.88
9570.00,0.88
9568.00,0.87
9566.00,0.87
9564.00,0.87
9562.00,0.86
9560.00,0.86
9558.00,0.85
9556.00,0.85
9554.00,0.85
9552.00,0.85
9550.00,0.85
9548.00,0.85
9546.00,0.86
9544.00,0.86
9542.00,0.86
9540.00,0.86
9538.00,0.86
9536.00,0.86
9534.00,0.86
9532.00,0.87
9530.00,0.87
9528.00,0.87
9526.00,0.87
9524.00,0.88
9522.00,0.88
9520.00,0.88
9518.00,0.88
9516.00,0.88
9514.00,0.88
9512.00,0.88
9510.00,0.88
9508.00,0.88
9506.00,0.88
9504.00,0.88
9502.00,0.87
9500.00,0.87
9498.00,0.86
9496.00,0.85
9494.00,0.85
9492.00,0.85
9490.00,0.84
9488.00,0.84
9486.00,0.84
9484.00,0.84
9482.00,0.85
9480.00,0.85
9478.00,0.85
9476.00,0.85
9474.00,0.85
9472.00,0.85
9470.00,0.85
9468.00,0.85
9466.00,0.85
9464.00,0.85
9462.00,0.85
9460.00,0.85
9458.00,0.85
9456.00,0.86
9454.00,0.86
9452.00,0.86
9450.00,0.86
9448.00,0.86
9446.00,0.86
9444.00,0.85
9442.00,0.85
9440.00,0.84
9438.00,0.84
9436.00,0.84
9434.00,0.84
9432.00,0.84
9430.00,0.84
9428.00,0.85
9426.00,0.85
9424.00,0.85
9422.00,0.85
9420.00,0.85
9418.00,0.85
9416.00,0.85
9414.00,0.85
9412.00,0.86
9410.00,0.86
9408.00,0.86
9406.00,0.87
9404.00,0.87
9402.00,0.87
9400.00,0.87
9398.00,0.87
9396.00,0.87
9394.00,0.87
9392.00,0.87
9390.00,0.87
9388.00,0.87
9386.00,0.87
9384.00,0.86
9382.00,0.86
9380.00,0.86
9378.00,0.86
9376.00,0.86
9374.00,0.85
9372.00,0.85
9370.00,0.85
9368.00,0.85
9366.00,0.85
9364.00,0.85
9362.00,0.86
9360.00,0.86
9358.00,0.86
9356.00,0.86
9354.00,0.85
9352.00,0.85
9350.00,0.85
9348.00,0.84
9346.00,0.84
9344.00,0.84
9342.00,0.84
9340.00,0.84
9338.00,0.84
9336.00,0.85
9334.00,0.85
9332.00,0.85
9330.00,0.85
9328.00,0.86
9326.00,0.86
9324.00,0.86
9322.00,0.86
9320.00,0.86
9318.00,0.86
9316.00,0.86
9314.00,0.87
9312.00,0.87
9310.00,0.87
9308.00,0.86
9306.00,0.86
9304.00,0.86
9302.00,0.86
9300.00,0.87
9298.00,0.87
9296.00,0.87
9294.00,0.87
9292.00,0.87
9290.00,0.86
9288.00,0.86
9286.00,0.86
9284.00,0.85
9282.00,0.85
9280.00,0.85
9278.00,0.85
9276.00,0.85
9274.00,0.85
9272.00,0.85
9270.00,0.86
9268.00,0.86
9266.00,0.86
9264.00,0.86
9262.00,0.86
9260.00,0.86
9258.00,0.85
9256.00,0.85
9254.00,0.85
9252.00,0.85
9250.00,0.85
9248.00,0.85
9246.00,0.85
9244.00,0.85
9242.00,0.85
9240.00,0.85
9238.00,0.85
9236.00,0.85
9234.00,0.85
9232.00,0.85
9230.00,0.85
9228.00,0.85
9226.00,0.84
9224.00,0.84
9222.00,0.85
9220.00,0.85
9218.00,0.85
9216.00,0.85
9214.00,0.85
9212.00,0.85
9210.00,0.85
9208.00,0.85
9206.00,0.85
9204.00,0.85
9202.00,0.84
9200.00,0.84
9198.00,0.84
9196.00,0.84
9194.00,0.84
9192.00,0.84
9190.00,0.84
9188.00,0.84
9186.00,0.84
9184.00,0.84
9182.00,0.84
9180.00,0.84
9178.00,0.84
9176.00,0.84
9174.00,0.84
9172.00,0.84
9170.00,0.84
9168.00,0.84
9166.00,0.85
9164.00,0.85
9162.00,0.86
9160.00,0.86
9158.00,0.86
9156.00,0.87
9154.00,0.87
9152.00,0.87
9150.00,0.87
9148.00,0.86
9146.00,0.86
9144.00,0.86
9142.00,0.85
9140.00,0.85
9138.00,0.85
9136.00,0.85
9134.00,0.84
9132.00,0.84
9130.00,0.84
9128.00,0.84
9126.00,0.84
9124.00,0.84
9122.00,0.84
9120.00,0.85
9118.00,0.85
9116.00,0.85
9114.00,0.86
9112.00,0.86
9110.00,0.86
9108.00,0.86
9106.00,0.86
9104.00,0.86
9102.00,0.86
9100.00,0.86
9098.00,0.86
9096.00,0.86
9094.00,0.87
9092.00,0.86
9090.00,0.86
9088.00,0.86
9086.00,0.86
9084.00,0.85
9082.00,0.85
9080.00,0.84
9078.00,0.84
9076.00,0.84
9074.00,0.83
9072.00,0.83
9070.00,0.83
9068.00,0.84
9066.00,0.84
9064.00,0.84
9062.00,0.84
9060.00,0.85
9058.00,0.85
9056.00,0.85
9054.00,0.85
9052.00,0.85
9050.00,0.85
9048.00,0.85
9046.00,0.84
9044.00,0.85
9042.00,0.85
9040.00,0.85
9038.00,0.85
9036.00,0.86
9034.00,0.86
9032.00,0.86
9030.00,0.86
9028.00,0.86
9026.00,0.86
9024.00,0.86
9022.00,0.86
9020.00,0.86
9018.00,0.87
9016.00,0.87
9014.00,0.86
9012.00,0.86
9010.00,0.86
9008.00,0.86
9006.00,0.85
9004.00,0.85
9002.00,0.84
9000.00,0.84
8998.00,0.84
8996.00,0.84
8994.00,0.84
8992.00,0.84
8990.00,0.85
8988.00,0.85
8986.00,0.86
8984.00,0.86
8982.00,0.87
8980.00,0.87
8978.00,0.87
8976.00,0.88
8974.00,0.88
8972.00,0.87
8970.00,0.87
8968.00,0.87
8966.00,0.87
8964.00,0.87
8962.00,0.87
8960.00,0.86
8958.00,0.86
8956.00,0.86
8954.00,0.86
8952.00,0.86
8950.00,0.86
8948.00,0.86
8946.00,0.86
8944.00,0.86
8942.00,0.86
8940.00,0.86
8938.00,0.86
8936.00,0.86
8934.00,0.85
8932.00,0.85
8930.00,0.85
8928.00,0.85
8926.00,0.85
8924.00,0.85
8922.00,0.85
8920.00,0.85
8918.00,0.85
8916.00,0.84
8914.00,0.84
8912.00,0.85
8910.00,0.85
8908.00,0.85
8906.00,0.86
8904.00,0.86
8902.00,0.86
8900.00,0.86
8898.00,0.86
8896.00,0.86
8894.00,0.86
8892.00,0.85
8890.00,0.85
8888.00,0.85
8886.00,0.85
8884.00,0.85
8882.00,0.84
8880.00,0.84
8878.00,0.84
8876.00,0.84
8874.00,0.84
8872.00,0.85
8870.00,0.85
8868.00,0.85
8866.00,0.85
8864.00,0.86
8862.00,0.86
8860.00,0.86
8858.00,0.86
8856.00,0.87
8854.00,0.87
8852.00,0.87
8850.00,0.87
8848.00,0.87
8846.00,0.87
8844.00,0.87
8842.00,0.87
8840.00,0.87
8838.00,0.87
8836.00,0.87
8834.00,0.87
8832.00,0.87
8830.00,0.87
8828.00,0.87
8826.00,0.87
8824.00,0.87
8822.00,0.87
8820.00,0.86
8818.00,0.86
8816.00,0.87
8814.00,0.87
8812.00,0.87
8810.00,0.87
8808.00,0.87
8806.00,0.86
8804.00,0.86
8802.00,0.86
8800.00,0.86
8798.00,0.86
8796.00,0.85
8794.00,0.85
8792.00,0.85
8790.00,0.85
8788.00,0.85
8786.00,0.85
8784.00,0.85
8782.00,0.85
8780.00,0.85
8778.00,0.85
8776.00,0.85
8774.00,0.85
8772.00,0.85
8770.00,0.85
8768.00,0.85
8766.00,0.85
8764.00,0.85
8762.00,0.85
8760.00,0.85
8758.00,0.85
8756.00,0.85
8754.00,0.85
8752.00,0.85
8750.00,0.86
8748.00,0.86
8746.00,0.86
8744.00,0.86
8742.00,0.86
8740.00,0.86
8738.00,0.86
8736.00,0.86
8734.00,0.86
8732.00,0.86
8730.00,0.86
8728.00,0.86
8726.00,0.86
8724.00,0.86
8722.00,0.85
8720.00,0.85
8718.00,0.85
8716.00,0.84
8714.00,0.84
8712.00,0.84
8710.00,0.84
8708.00,0.84
8706.00,0.84
8704.00,0.84
8702.00,0.84
8700.00,0.84
8698.00,0.84
8696.00,0.85
8694.00,0.85
8692.00,0.85
8690.00,0.85
8688.00,0.85
8686.00,0.85
8684.00,0.85
8682.00,0.85
8680.00,0.85
8678.00,0.85
8676.00,0.85
8674.00,0.85
8672.00,0.85
8670.00,0.85
8668.00,0.85
8666.00,0.85
8664.00,0.85
8662.00,0.85
8660.00,0.86
8658.00,0.86
8656.00,0.86
8654.00,0.87
8652.00,0.87
8650.00,0.87
8648.00,0.87
8646.00,0.87
8644.00,0.87
8642.00,0.87
8640.00,0.87
8638.00,0.86
8636.00,0.86
8634.00,0.86
8632.00,0.85
8630.00,0.85
8628.00,0.85
8626.00,0.85
8624.00,0.85
8622.00,0.85
8620.00,0.86
8618.00,0.86
8616.00,0.86
8614.00,0.86
8612.00,0.86
8610.00,0.86
8608.00,0.85
8606.00,0.85
8604.00,0.85
8602.00,0.85
8600.00,0.84
8598.00,0.84
8596.00,0.84
8594.00,0.84
8592.00,0.84
8590.00,0.84
8588.00,0.84
8586.00,0.84
8584.00,0.85
8582.00,0.85
8580.00,0.85
8578.00,0.86
8576.00,0.86
8574.00,0.86
8572.00,0.87
8570.00,0.87
8568.00,0.87
8566.00,0.87
8564.00,0.87
8562.00,0.87
8560.00,0.87
8558.00,0.86
8556.00,0.86
8554.00,0.86
8552.00,0.86
8550.00,0.86
8548.00,0.86
8546.00,0.86
8544.00,0.86
8542.00,0.86
8540.00,0.86
8538.00,0.86
8536.00,0.85
8534.00,0.85
8532.00,0.85
8530.00,0.85
8528.00,0.85
8526.00,0.85
8524.00,0.84
8522.00,0.84
8520.00,0.84
8518.00,0.83
8516.00,0.83
8514.00,0.83
8512.00,0.83
8510.00,0.83
8508.00,0.83
8506.00,0.83
8504.00,0.83
8502.00,0.84
8500.00,0.84
8498.00,0.84
8496.00,0.84
8494.00,0.85
8492.00,0.85
8490.00,0.85
8488.00,0.84
8486.00,0.84
8484.00,0.84
8482.00,0.84
8480.00,0.84
8478.00,0.84
8476.00,0.84
8474.00,0.84
8472.00,0.85
8470.00,0.85
8468.00,0.85
8466.00,0.85
8464.00,0.85
8462.00,0.86
8460.00,0.86
8458.00,0.86
8456.00,0.86
8454.00,0.86
8452.00,0.86
8450.00,0.86
8448.00,0.85
8446.00,0.85
8444.00,0.85
8442.00,0.84
8440.00,0.84
8438.00,0.84
8436.00,0.84
8434.00,0.84
8432.00,0.84
8430.00,0.84
8428.00,0.84
8426.00,0.83
8424.00,0.83
8422.00,0.83
8420.00,0.83
8418.00,0.83
8416.00,0.83
8414.00,0.82
8412.00,0.82
8410.00,0.82
8408.00,0.82
8406.00,0.82
8404.00,0.83
8402.00,0.83
8400.00,0.83
8398.00,0.84
8396.00,0.84
8394.00,0.84
8392.00,0.85
8390.00,0.85
8388.00,0.85
8386.00,0.85
8384.00,0.85
8382.00,0.85
8380.00,0.85
8378.00,0.85
8376.00,0.85
8374.00,0.85
8372.00,0.85
8370.00,0.85
8368.00,0.85
8366.00,0.84
8364.00,0.84
8362.00,0.84
8360.00,0.84
8358.00,0.84
8356.00,0.84
8354.00,0.84
8352.00,0.84
8350.00,0.84
8348.00,0.85
8346.00,0.85
8344.00,0.85
8342.00,0.85
8340.00,0.85
8338.00,0.85
8336.00,0.85
8334.00,0.84
8332.00,0.84
8330.00,0.84
8328.00,0.84
8326.00,0.84
8324.00,0.84
8322.00,0.84
8320.00,0.84
8318.00,0.84
8316.00,0.84
8314.00,0.84
8312.00,0.84
8310.00,0.84
8308.00,0.84
8306.00,0.84
8304.00,0.84
8302.00,0.84
8300.00,0.84
8298.00,0.84
8296.00,0.85
8294.00,0.85
8292.00,0.84
8290.00,0.84
8288.00,0.84
8286.00,0.84
8284.00,0.84
8282.00,0.84
8280.00,0.84
8278.00,0.84
8276.00,0.84
8274.00,0.85
8272.00,0.85
8270.00,0.85
8268.00,0.85
8266.00,0.85
8264.00,0.85
8262.00,0.85
8260.00,0.86
8258.00,0.86
8256.00,0.86
8254.00,0.86
8252.00,0.86
8250.00,0.86
8248.00,0.86
8246.00,0.86
8244.00,0.86
8242.00,0.86
8240.00,0.85
8238.00,0.85
8236.00,0.85
8234.00,0.85
8232.00,0.85
8230.00,0.85
8228.00,0.85
8226.00,0.85
8224.00,0.84
8222.00,0.84
8220.00,0.84
8218.00,0.84
8216.00,0.85
8214.00,0.85
8212.00,0.85
8210.00,0.85
8208.00,0.85
8206.00,0.85
8204.00,0.85
8202.00,0.85
8200.00,0.85
8198.00,0.85
8196.00,0.85
8194.00,0.85
8192.00,0.85
8190.00,0.85
8188.00,0.85
8186.00,0.85
8184.00,0.85
8182.00,0.85
8180.00,0.85
8178.00,0.85
8176.00,0.85
8174.00,0.85
8172.00,0.85
8170.00,0.85
8168.00,0.85
8166.00,0.85
8164.00,0.85
8162.00,0.85
8160.00,0.86
8158.00,0.86
8156.00,0.86
8154.00,0.86
8152.00,0.86
8150.00,0.86
8148.00,0.87
8146.00,0.87
8144.00,0.87
8142.00,0.86
8140.00,0.86
8138.00,0.86
8136.00,0.86
8134.00,0.86
8132.00,0.86
8130.00,0.85
8128.00,0.85
8126.00,0.85
8124.00,0.85
8122.00,0.85
8120.00,0.85
8118.00,0.85
8116.00,0.85
8114.00,0.85
8112.00,0.85
8110.00,0.85
8108.00,0.85
8106.00,0.86
8104.00,0.86
8102.00,0.86
8100.00,0.86
8098.00,0.86
8096.00,0.86
8094.00,0.86
8092.00,0.86
8090.00,0.86
8088.00,0.86
8086.00,0.86
8084.00,0.86
8082.00,0.86
8080.00,0.86
8078.00,0.86
8076.00,0.86
8074.00,0.86
8072.00,0.85
8070.00,0.85
8068.00,0.85
8066.00,0.85
8064.00,0.86
8062.00,0.86
8060.00,0.86
8058.00,0.86
8056.00,0.86
8054.00,0.86
8052.00,0.87
8050.00,0.87
8048.00,0.87
8046.00,0.87
8044.00,0.87
8042.00,0.87
8040.00,0.87
8038.00,0.87
8036.00,0.87
8034.00,0.86
8032.00,0.86
8030.00,0.86
8028.00,0.86
8026.00,0.86
8024.00,0.86
8022.00,0.86
8020.00,0.85
8018.00,0.85
8016.00,0.85
8014.00,0.85
8012.00,0.85
8010.00,0.85
8008.00,0.86
8006.00,0.86
8004.00,0.86
8002.00,0.86
8000.00,0.86
7998.00,0.87
7996.00,0.86
7994.00,0.86
7992.00,0.86
7990.00,0.86
7988.00,0.85
7986.00,0.85
7984.00,0.85
7982.00,0.85
7980.00,0.85
7978.00,0.85
7976.00,0.86
7974.00,0.86
7972.00,0.86
7970.00,0.86
7968.00,0.86
7966.00,0.86
7964.00,0.86
7962.00,0.86
7960.00,0.86
7958.00,0.86
7956.00,0.86
7954.00,0.86
7952.00,0.86
7950.00,0.86
7948.00,0.86
7946.00,0.86
7944.00,0.86
7942.00,0.87
7940.00,0.87
7938.00,0.87
7936.00,0.87
7934.00,0.87
7932.00,0.87
7930.00,0.87
7928.00,0.87
7926.00,0.87
7924.00,0.87
7922.00,0.87
7920.00,0.87
7918.00,0.86
7916.00,0.86
7914.00,0.86
7912.00,0.86
7910.00,0.86
7908.00,0.86
7906.00,0.86
7904.00,0.86
7902.00,0.86
7900.00,0.86
7898.00,0.86
7896.00,0.86
7894.00,0.86
7892.00,0.86
7890.00,0.86
7888.00,0.86
7886.00,0.86
7884.00,0.86
7882.00,0.86
7880.00,0.86
7878.00,0.86
7876.00,0.86
7874.00,0.86
7872.00,0.86
7870.00,0.86
7868.00,0.86
7866.00,0.86
7864.00,0.86
7862.00,0.86
7860.00,0.87
7858.00,0.87
7856.00,0.87
7854.00,0.87
7852.00,0.87
7850.00,0.87
7848.00,0.87
7846.00,0.87
7844.00,0.87
7842.00,0.86
7840.00,0.86
7838.00,0.87
7836.00,0.87
7834.00,0.87
7832.00,0.87
7830.00,0.87
7828.00,0.87
7826.00,0.87
7824.00,0.87
7822.00,0.87
7820.00,0.87
7818.00,0.87
7816.00,0.87
7814.00,0.87
7812.00,0.87
7810.00,0.87
7808.00,0.87
7806.00,0.87
7804.00,0.87
7802.00,0.86
7800.00,0.86
7798.00,0.86
7796.00,0.86
7794.00,0.86
7792.00,0.86
7790.00,0.87
7788.00,0.87
7786.00,0.87
7784.00,0.87
7782.00,0.87
7780.00,0.87
7778.00,0.87
7776.00,0.87
7774.00,0.87
7772.00,0.87
7770.00,0.87
7768.00,0.87
7766.00,0.86
7764.00,0.86
7762.00,0.86
7760.00,0.86
7758.00,0.86
7756.00,0.86
7754.00,0.86
7752.00,0.86
7750.00,0.86
7748.00,0.86
7746.00,0.86
7744.00,0.86
7742.00,0.86
7740.00,0.86
7738.00,0.87
7736.00,0.87
7734.00,0.87
7732.00,0.87
7730.00,0.87
7728.00,0.87
7726.00,0.87
7724.00,0.87
7722.00,0.87
7720.00,0.87
7718.00,0.87
7716.00,0.86
7714.00,0.86
7712.00,0.86
7710.00,0.86
7708.00,0.86
7706.00,0.87
7704.00,0.87
7702.00,0.87
7700.00,0.87
7698.00,0.87
7696.00,0.87
7694.00,0.87
7692.00,0.86
7690.00,0.86
7688.00,0.86
7686.00,0.86
7684.00,0.86
7682.00,0.86
7680.00,0.86
7678.00,0.86
7676.00,0.86
7674.00,0.86
7672.00,0.86
7670.00,0.86
7668.00,0.87
7666.00,0.87
7664.00,0.87
7662.00,0.87
7660.00,0.87
7658.00,0.87
7656.00,0.87
7654.00,0.87
7652.00,0.87
7650.00,0.87
7648.00,0.87
7646.00,0.87
7644.00,0.87
7642.00,0.87
7640.00,0.87
7638.00,0.87
7636.00,0.87
7634.00,0.87
7632.00,0.87
7630.00,0.87
7628.00,0.87
7626.00,0.87
7624.00,0.87
7622.00,0.88
7620.00,0.88
7618.00,0.88
7616.00,0.88
7614.00,0.88
7612.00,0.88
7610.00,0.88
7608.00,0.88
7606.00,0.87
7604.00,0.87
7602.00,0.87
7600.00,0.87
7598.00,0.87
7596.00,0.86
7594.00,0.86
7592.00,0.86
7590.00,0.87
7588.00,0.87
7586.00,0.87
7584.00,0.87
7582.00,0.87
7580.00,0.86
7578.00,0.86
7576.00,0.86
7574.00,0.86
7572.00,0.86
7570.00,0.86
7568.00,0.86
7566.00,0.86
7564.00,0.86
7562.00,0.86
7560.00,0.86
7558.00,0.86
7556.00,0.86
7554.00,0.86
7552.00,0.86
7550.00,0.86
7548.00,0.86
7546.00,0.86
7544.00,0.86
7542.00,0.86
7540.00,0.86
7538.00,0.86
7536.00,0.86
7534.00,0.86
7532.00,0.86
7530.00,0.86
7528.00,0.86
7526.00,0.87
7524.00,0.87
7522.00,0.87
7520.00,0.87
7518.00,0.87
7516.00,0.87
7514.00,0.87
7512.00,0.86
7510.00,0.86
7508.00,0.86
7506.00,0.85
7504.00,0.85
7502.00,0.85
7500.00,0.85
7498.00,0.85
7496.00,0.85
7494.00,0.85
7492.00,0.85
7490.00,0.86
7488.00,0.86
7486.00,0.86
7484.00,0.86
7482.00,0.86
7480.00,0.86
7478.00,0.86
7476.00,0.87
7474.00,0.87
7472.00,0.87
7470.00,0.87
7468.00,0.87
7466.00,0.87
7464.00,0.87
7462.00,0.87
7460.00,0.87
7458.00,0.87
7456.00,0.87
7454.00,0.86
7452.00,0.86
7450.00,0.86
7448.00,0.86
7446.00,0.86
7444.00,0.86
7442.00,0.86
7440.00,0.86
7438.00,0.86
7436.00,0.86
7434.00,0.86
7432.00,0.86
7430.00,0.86
7428.00,0.86
7426.00,0.86
7424.00,0.86
7422.00,0.86
7420.00,0.86
7418.00,0.86
7416.00,0.86
7414.00,0.85
7412.00,0.85
7410.00,0.85
7408.00,0.85
7406.00,0.85
7404.00,0.85
7402.00,0.85
7400.00,0.85
7398.00,0.85
7396.00,0.85
7394.00,0.85
7392.00,0.85
7390.00,0.86
7388.00,0.86
7386.00,0.86
7384.00,0.86
7382.00,0.86
7380.00,0.86
7378.00,0.86
7376.00,0.86
7374.00,0.86
7372.00,0.86
7370.00,0.86
7368.00,0.86
7366.00,0.86
7364.00,0.86
7362.00,0.86
7360.00,0.86
7358.00,0.86
7356.00,0.86
7354.00,0.85
7352.00,0.85
7350.00,0.85
7348.00,0.85
7346.00,0.85
7344.00,0.85
7342.00,0.84
7340.00,0.84
7338.00,0.85
7336.00,0.85
7334.00,0.85
7332.00,0.85
7330.00,0.85
7328.00,0.85
7326.00,0.85
7324.00,0.85
7322.00,0.85
7320.00,0.85
7318.00,0.84
7316.00,0.84
7314.00,0.84
7312.00,0.83
7310.00,0.83
7308.00,0.83
7306.00,0.83
7304.00,0.84
7302.00,0.84
7300.00,0.84
7298.00,0.85
7296.00,0.85
7294.00,0.85
7292.00,0.85
7290.00,0.85
7288.00,0.85
7286.00,0.85
7284.00,0.85
7282.00,0.85
7280.00,0.85
7278.00,0.85
7276.00,0.84
7274.00,0.84
7272.00,0.84
7270.00,0.84
7268.00,0.84
7266.00,0.84
7264.00,0.84
7262.00,0.84
7260.00,0.84
7258.00,0.84
7256.00,0.84
7254.00,0.84
7252.00,0.83
7250.00,0.83
7248.00,0.83
7246.00,0.83
7244.00,0.83
7242.00,0.83
7240.00,0.83
7238.00,0.83
7236.00,0.83
7234.00,0.83
7232.00,0.83
7230.00,0.83
7228.00,0.83
7226.00,0.83
7224.00,0.83
7222.00,0.83
7220.00,0.83
7218.00,0.83
7216.00,0.83
7214.00,0.83
7212.00,0.83
7210.00,0.83
7208.00,0.82
7206.00,0.82
7204.00,0.82
7202.00,0.82
7200.00,0.82
7198.00,0.82
7196.00,0.82
7194.00,0.82
7192.00,0.82
7190.00,0.82
7188.00,0.82
7186.00,0.82
7184.00,0.82
7182.00,0.81
7180.00,0.81
7178.00,0.81
7176.00,0.81
7174.00,0.81
7172.00,0.80
7170.00,0.80
7168.00,0.80
7166.00,0.80
7164.00,0.80
7162.00,0.80
7160.00,0.80
7158.00,0.80
7156.00,0.80
7154.00,0.80
7152.00,0.80
7150.00,0.80
7148.00,0.80
7146.00,0.79
7144.00,0.79
7142.00,0.79
7140.00,0.79
7138.00,0.79
7136.00,0.79
7134.00,0.79
7132.00,0.79
7130.00,0.79
7128.00,0.79
7126.00,0.79
7124.00,0.79
7122.00,0.79
7120.00,0.78
7118.00,0.78
7116.00,0.78
7114.00,0.78
7112.00,0.78
7110.00,0.78
7108.00,0.78
7106.00,0.77
7104.00,0.77
7102.00,0.77
7100.00,0.77
7098.00,0.77
7096.00,0.77
7094.00,0.77
7092.00,0.78
7090.00,0.78
7088.00,0.78
7086.00,0.78
7084.00,0.78
7082.00,0.78
7080.00,0.78
7078.00,0.78
7076.00,0.78
7074.00,0.78
7072.00,0.78
7070.00,0.77
7068.00,0.77
7066.00,0.77
7064.00,0.77
7062.00,0.77
7060.00,0.77
7058.00,0.77
7056.00,0.77
7054.00,0.77
7052.00,0.77
7050.00,0.77
7048.00,0.77
7046.00,0.77
7044.00,0.77
7042.00,0.77
7040.00,0.77
7038.00,0.77
7036.00,0.77
7034.00,0.77
7032.00,0.77
7030.00,0.77
7028.00,0.77
7026.00,0.77
7024.00,0.77
7022.00,0.77
7020.00,0.77
7018.00,0.77
7016.00,0.77
7014.00,0.77
7012.00,0.77
7010.00,0.77
7008.00,0.77
7006.00,0.77
7004.00,0.77
7002.00,0.76
7000.00,0.76
6998.00,0.76
6996.00,0.76
6994.00,0.76
6992.00,0.76
6990.00,0.76
6988.00,0.76
6986.00,0.76
6984.00,0.76
6982.00,0.76
6980.00,0.76
6978.00,0.76
6976.00,0.76
6974.00,0.76
6972.00,0.77
6970.00,0.77
6968.00,0.77
6966.00,0.77
6964.00,0.77
6962.00,0.77
6960.00,0.76
6958.00,0.76
6956.00,0.76
6954.00,0.76
6952.00,0.76
6950.00,0.76
6948.00,0.76
6946.00,0.76
6944.00,0.76
6942.00,0.76
6940.00,0.76
6938.00,0.76
6936.00,0.76
