创建为新数据集,样品 1720 用户 Administrator 日期 星期三, 三月 15 2017
cm-1,%T
10000.00,0.76
9998.00,0.76
9996.00,0.76
9994.00,0.77
9992.00,0.77
9990.00,0.77
9988.00,0.78
9986.00,0.78
9984.00,0.78
9982.00,0.77
9980.00,0.77
9978.00,0.76
9976.00,0.75
9974.00,0.75
9972.00,0.74
9970.00,0.74
9968.00,0.73
9966.00,0.73
9964.00,0.73
9962.00,0.73
9960.00,0.73
9958.00,0.73
9956.00,0.73
9954.00,0.74
9952.00,0.74
9950.00,0.74
9948.00,0.75
9946.00,0.75
9944.00,0.75
9942.00,0.75
9940.00,0.74
9938.00,0.74
9936.00,0.73
9934.00,0.72
9932.00,0.72
9930.00,0.71
9928.00,0.71
9926.00,0.71
9924.00,0.71
9922.00,0.72
9920.00,0.72
9918.00,0.73
9916.00,0.73
9914.00,0.73
9912.00,0.74
9910.00,0.74
9908.00,0.74
9906.00,0.74
9904.00,0.74
9902.00,0.73
9900.00,0.73
9898.00,0.73
9896.00,0.73
9894.00,0.73
9892.00,0.73
9890.00,0.74
9888.00,0.74
9886.00,0.74
9884.00,0.74
9882.00,0.74
9880.00,0.74
9878.00,0.73
9876.00,0.73
9874.00,0.73
9872.00,0.73
9870.00,0.73
9868.00,0.72
9866.00,0.72
9864.00,0.71
9862.00,0.71
9860.00,0.70
9858.00,0.70
9856.00,0.70
9854.00,0.69
9852.00,0.69
9850.00,0.70
9848.00,0.70
9846.00,0.70
9844.00,0.70
9842.00,0.70
9840.00,0.70
9838.00,0.70
9836.00,0.70
9834.00,0.70
9832.00,0.70
9830.00,0.70
9828.00,0.70
9826.00,0.70
9824.00,0.70
9822.00,0.70
9820.00,0.70
9818.00,0.70
9816.00,0.71
9814.00,0.71
9812.00,0.72
9810.00,0.73
9808.00,0.73
9806.00,0.74
9804.00,0.74
9802.00,0.74
9800.00,0.74
9798.00,0.74
9796.00,0.74
9794.00,0.74
9792.00,0.73
9790.00,0.73
9788.00,0.73
9786.00,0.73
9784.00,0.73
9782.00,0.73
9780.00,0.73
9778.00,0.73
9776.00,0.73
9774.00,0.73
9772.00,0.73
9770.00,0.73
9768.00,0.72
9766.00,0.72
9764.00,0.72
9762.00,0.71
9760.00,0.71
9758.00,0.71
9756.00,0.71
9754.00,0.71
9752.00,0.71
9750.00,0.71
9748.00,0.71
9746.00,0.71
9744.00,0.71
9742.00,0.71
9740.00,0.71
9738.00,0.72
9736.00,0.72
9734.00,0.72
9732.00,0.72
9730.00,0.72
9728.00,0.72
9726.00,0.72
9724.00,0.71
9722.00,0.71
9720.00,0.71
9718.00,0.71
9716.00,0.71
9714.00,0.71
9712.00,0.71
9710.00,0.71
9708.00,0.71
9706.00,0.71
9704.00,0.71
9702.00,0.71
9700.00,0.71
9698.00,0.71
9696.00,0.71
9694.00,0.71
9692.00,0.71
9690.00,0.71
9688.00,0.72
9686.00,0.72
9684.00,0.72
9682.00,0.72
9680.00,0.72
9678.00,0.72
9676.00,0.72
9674.00,0.72
9672.00,0.72
9670.00,0.71
9668.00,0.71
9666.00,0.71
9664.00,0.71
9662.00,0.71
9660.00,0.71
9658.00,0.72
9656.00,0.72
9654.00,0.72
9652.00,0.72
9650.00,0.72
9648.00,0.71
9646.00,0.71
9644.00,0.71
9642.00,0.71
9640.00,0.71
9638.00,0.71
9636.00,0.71
9634.00,0.72
9632.00,0.72
9630.00,0.72
9628.00,0.73
9626.00,0.73
9624.00,0.73
9622.00,0.73
9620.00,0.73
9618.00,0.73
9616.00,0.73
9614.00,0.73
9612.00,0.73
9610.00,0.72
9608.00,0.72
9606.00,0.72
9604.00,0.72
9602.00,0.72
9600.00,0.72
9598.00,0.72
9596.00,0.72
9594.00,0.72
9592.00,0.72
9590.00,0.72
9588.00,0.73
9586.00,0.73
9584.00,0.73
9582.00,0.73
9580.00,0.74
9578.00,0.74
9576.00,0.74
9574.00,0.74
9572.00,0.74
9570.00,0.74
9568.00,0.74
9566.00,0.73
9564.00,0.73
9562.00,0.73
9560.00,0.72
9558.00,0.72
9556.00,0.72
9554.00,0.71
9552.00,0.71
9550.00,0.71
9548.00,0.71
9546.00,0.71
9544.00,0.71
9542.00,0.72
9540.00,0.72
9538.00,0.72
9536.00,0.73
9534.00,0.73
9532.00,0.73
9530.00,0.73
9528.00,0.73
9526.00,0.73
9524.00,0.74
9522.00,0.74
9520.00,0.74
9518.00,0.74
9516.00,0.74
9514.00,0.73
9512.00,0.73
9510.00,0.73
9508.00,0.72
9506.00,0.72
9504.00,0.72
9502.00,0.71
9500.00,0.71
9498.00,0.71
9496.00,0.71
9494.00,0.71
9492.00,0.71
9490.00,0.71
9488.00,0.71
9486.00,0.71
9484.00,0.71
9482.00,0.71
9480.00,0.71
9478.00,0.71
9476.00,0.70
9474.00,0.70
9472.00,0.69
9470.00,0.69
9468.00,0.68
9466.00,0.68
9464.00,0.68
9462.00,0.68
9460.00,0.68
9458.00,0.69
9456.00,0.69
9454.00,0.69
9452.00,0.69
9450.00,0.69
9448.00,0.69
9446.00,0.70
9444.00,0.70
9442.00,0.70
9440.00,0.71
9438.00,0.71
9436.00,0.71
9434.00,0.72
9432.00,0.72
9430.00,0.72
9428.00,0.72
9426.00,0.72
9424.00,0.72
9422.00,0.71
9420.00,0.71
9418.00,0.71
9416.00,0.70
9414.00,0.70
9412.00,0.70
9410.00,0.70
9408.00,0.70
9406.00,0.70
9404.00,0.70
9402.00,0.70
9400.00,0.70
9398.00,0.71
9396.00,0.71
9394.00,0.71
9392.00,0.71
9390.00,0.71
9388.00,0.71
9386.00,0.72
9384.00,0.72
9382.00,0.72
9380.00,0.72
9378.00,0.73
9376.00,0.73
9374.00,0.73
9372.00,0.73
9370.00,0.73
9368.00,0.72
9366.00,0.72
9364.00,0.72
9362.00,0.72
9360.00,0.72
9358.00,0.73
9356.00,0.73
9354.00,0.73
9352.00,0.73
9350.00,0.73
9348.00,0.73
9346.00,0.73
9344.00,0.72
9342.00,0.72
9340.00,0.72
9338.00,0.71
9336.00,0.71
9334.00,0.71
9332.00,0.70
9330.00,0.70
9328.00,0.70
9326.00,0.70
9324.00,0.70
9322.00,0.70
9320.00,0.70
9318.00,0.70
9316.00,0.71
9314.00,0.71
9312.00,0.71
9310.00,0.71
9308.00,0.71
9306.00,0.71
9304.00,0.71
9302.00,0.71
9300.00,0.71
9298.00,0.71
9296.00,0.71
9294.00,0.70
9292.00,0.70
9290.00,0.70
9288.00,0.70
9286.00,0.70
9284.00,0.70
9282.00,0.70
9280.00,0.71
9278.00,0.71
9276.00,0.71
9274.00,0.72
9272.00,0.72
9270.00,0.72
9268.00,0.72
9266.00,0.72
9264.00,0.72
9262.00,0.72
9260.00,0.72
9258.00,0.72
9256.00,0.72
9254.00,0.71
9252.00,0.71
9250.00,0.71
9248.00,0.70
9246.00,0.70
9244.00,0.70
9242.00,0.70
9240.00,0.71
9238.00,0.71
9236.00,0.71
9234.00,0.72
9232.00,0.72
9230.00,0.72
9228.00,0.72
9226.00,0.72
9224.00,0.72
9222.00,0.72
9220.00,0.72
9218.00,0.71
9216.00,0.71
9214.00,0.71
9212.00,0.71
9210.00,0.71
9208.00,0.71
9206.00,0.71
9204.00,0.71
9202.00,0.71
9200.00,0.71
9198.00,0.71
9196.00,0.71
9194.00,0.71
9192.00,0.71
9190.00,0.71
9188.00,0.71
9186.00,0.72
9184.00,0.72
9182.00,0.72
9180.00,0.72
9178.00,0.73
9176.00,0.73
9174.00,0.73
9172.00,0.73
9170.00,0.73
9168.00,0.73
9166.00,0.72
9164.00,0.72
9162.00,0.71
9160.00,0.71
9158.00,0.70
9156.00,0.70
9154.00,0.70
9152.00,0.70
9150.00,0.70
9148.00,0.71
9146.00,0.71
9144.00,0.71
9142.00,0.71
9140.00,0.71
9138.00,0.71
9136.00,0.71
9134.00,0.71
9132.00,0.70
9130.00,0.70
9128.00,0.71
9126.00,0.71
9124.00,0.71
9122.00,0.71
9120.00,0.72
9118.00,0.72
9116.00,0.72
9114.00,0.72
9112.00,0.72
9110.00,0.72
9108.00,0.72
9106.00,0.71
9104.00,0.71
9102.00,0.71
9100.00,0.70
9098.00,0.70
9096.00,0.70
9094.00,0.70
9092.00,0.70
9090.00,0.71
9088.00,0.71
9086.00,0.71
9084.00,0.71
9082.00,0.71
9080.00,0.71
9078.00,0.71
9076.00,0.72
9074.00,0.72
9072.00,0.72
9070.00,0.72
9068.00,0.72
9066.00,0.72
9064.00,0.72
9062.00,0.72
9060.00,0.72
9058.00,0.72
9056.00,0.72
9054.00,0.71
9052.00,0.71
9050.00,0.71
9048.00,0.71
9046.00,0.71
9044.00,0.71
9042.00,0.71
9040.00,0.71
9038.00,0.71
9036.00,0.71
9034.00,0.71
9032.00,0.71
9030.00,0.71
9028.00,0.71
9026.00,0.71
9024.00,0.71
9022.00,0.71
9020.00,0.71
9018.00,0.72
9016.00,0.72
9014.00,0.72
9012.00,0.72
9010.00,0.72
9008.00,0.72
9006.00,0.71
9004.00,0.71
9002.00,0.71
9000.00,0.71
8998.00,0.71
8996.00,0.71
8994.00,0.72
8992.00,0.72
8990.00,0.72
8988.00,0.72
8986.00,0.73
8984.00,0.73
8982.00,0.73
8980.00,0.73
8978.00,0.73
8976.00,0.72
8974.00,0.72
8972.00,0.72
8970.00,0.72
8968.00,0.72
8966.00,0.71
8964.00,0.71
8962.00,0.71
8960.00,0.71
8958.00,0.72
8956.00,0.72
8954.00,0.72
8952.00,0.72
8950.00,0.72
8948.00,0.72
8946.00,0.72
8944.00,0.72
8942.00,0.72
8940.00,0.72
8938.00,0.72
8936.00,0.71
8934.00,0.72
8932.00,0.72
8930.00,0.72
8928.00,0.72
8926.00,0.72
8924.00,0.72
8922.00,0.73
8920.00,0.73
8918.00,0.73
8916.00,0.73
8914.00,0.73
8912.00,0.73
8910.00,0.73
8908.00,0.73
8906.00,0.73
8904.00,0.72
8902.00,0.72
8900.00,0.72
8898.00,0.72
8896.00,0.72
8894.00,0.72
8892.00,0.72
8890.00,0.72
8888.00,0.72
8886.00,0.72
8884.00,0.72
8882.00,0.71
8880.00,0.71
8878.00,0.71
8876.00,0.71
8874.00,0.71
8872.00,0.71
8870.00,0.71
8868.00,0.71
8866.00,0.71
8864.00,0.71
8862.00,0.71
8860.00,0.71
8858.00,0.71
8856.00,0.71
8854.00,0.71
8852.00,0.71
8850.00,0.71
8848.00,0.71
8846.00,0.71
8844.00,0.71
8842.00,0.71
8840.00,0.71
8838.00,0.71
8836.00,0.71
8834.00,0.71
8832.00,0.71
8830.00,0.71
8828.00,0.71
8826.00,0.72
8824.00,0.72
8822.00,0.72
8820.00,0.72
8818.00,0.72
8816.00,0.72
8814.00,0.72
8812.00,0.71
8810.00,0.71
8808.00,0.71
8806.00,0.70
8804.00,0.70
8802.00,0.70
8800.00,0.70
8798.00,0.71
8796.00,0.71
8794.00,0.71
8792.00,0.71
8790.00,0.71
8788.00,0.71
8786.00,0.71
8784.00,0.71
8782.00,0.71
8780.00,0.71
8778.00,0.71
8776.00,0.71
8774.00,0.71
8772.00,0.71
8770.00,0.71
8768.00,0.71
8766.00,0.72
8764.00,0.72
8762.00,0.72
8760.00,0.72
8758.00,0.72
8756.00,0.71
8754.00,0.71
8752.00,0.71
8750.00,0.71
8748.00,0.71
8746.00,0.71
8744.00,0.71
8742.00,0.71
8740.00,0.71
8738.00,0.71
8736.00,0.70
8734.00,0.70
8732.00,0.70
8730.00,0.70
8728.00,0.70
8726.00,0.70
8724.00,0.71
8722.00,0.71
8720.00,0.71
8718.00,0.71
8716.00,0.71
8714.00,0.71
8712.00,0.71
8710.00,0.71
8708.00,0.71
8706.00,0.71
8704.00,0.71
8702.00,0.71
8700.00,0.71
8698.00,0.71
8696.00,0.71
8694.00,0.71
8692.00,0.71
8690.00,0.71
8688.00,0.70
8686.00,0.70
8684.00,0.70
8682.00,0.70
8680.00,0.70
8678.00,0.70
8676.00,0.70
8674.00,0.70
8672.00,0.70
8670.00,0.71
8668.00,0.71
8666.00,0.71
8664.00,0.71
8662.00,0.71
8660.00,0.71
8658.00,0.71
8656.00,0.72
8654.00,0.72
8652.00,0.72
8650.00,0.72
8648.00,0.72
8646.00,0.72
8644.00,0.72
8642.00,0.72
8640.00,0.72
8638.00,0.71
8636.00,0.71
8634.00,0.71
8632.00,0.71
8630.00,0.71
8628.00,0.71
8626.00,0.71
8624.00,0.71
8622.00,0.71
8620.00,0.71
8618.00,0.71
8616.00,0.71
8614.00,0.71
8612.00,0.71
8610.00,0.71
8608.00,0.71
8606.00,0.71
8604.00,0.72
8602.00,0.72
8600.00,0.71
8598.00,0.71
8596.00,0.71
8594.00,0.71
8592.00,0.71
8590.00,0.71
8588.00,0.71
8586.00,0.71
8584.00,0.71
8582.00,0.72
8580.00,0.72
8578.00,0.72
8576.00,0.72
8574.00,0.72
8572.00,0.72
8570.00,0.72
8568.00,0.72
8566.00,0.72
8564.00,0.72
8562.00,0.72
8560.00,0.72
8558.00,0.72
8556.00,0.72
8554.00,0.72
8552.00,0.72
8550.00,0.72
8548.00,0.72
8546.00,0.71
8544.00,0.71
8542.00,0.71
8540.00,0.71
8538.00,0.71
8536.00,0.71
8534.00,0.71
8532.00,0.70
8530.00,0.70
8528.00,0.70
8526.00,0.70
8524.00,0.70
8522.00,0.70
8520.00,0.70
8518.00,0.71
8516.00,0.71
8514.00,0.71
8512.00,0.71
8510.00,0.71
8508.00,0.70
8506.00,0.70
8504.00,0.70
8502.00,0.70
8500.00,0.70
8498.00,0.70
8496.00,0.70
8494.00,0.71
8492.00,0.71
8490.00,0.71
8488.00,0.71
8486.00,0.71
8484.00,0.71
8482.00,0.71
8480.00,0.71
8478.00,0.71
8476.00,0.71
8474.00,0.71
8472.00,0.71
8470.00,0.71
8468.00,0.71
8466.00,0.71
8464.00,0.70
8462.00,0.70
8460.00,0.70
8458.00,0.70
8456.00,0.70
8454.00,0.70
8452.00,0.70
8450.00,0.71
8448.00,0.71
8446.00,0.71
8444.00,0.71
8442.00,0.71
8440.00,0.71
8438.00,0.71
8436.00,0.71
8434.00,0.70
8432.00,0.70
8430.00,0.70
8428.00,0.70
8426.00,0.70
8424.00,0.70
8422.00,0.70
8420.00,0.70
8418.00,0.71
8416.00,0.71
8414.00,0.71
8412.00,0.71
8410.00,0.71
8408.00,0.71
8406.00,0.71
8404.00,0.71
8402.00,0.70
8400.00,0.70
8398.00,0.70
8396.00,0.70
8394.00,0.70
8392.00,0.70
8390.00,0.70
8388.00,0.70
8386.00,0.70
8384.00,0.70
8382.00,0.70
8380.00,0.70
8378.00,0.71
8376.00,0.71
8374.00,0.71
8372.00,0.71
8370.00,0.71
8368.00,0.71
8366.00,0.71
8364.00,0.71
8362.00,0.71
8360.00,0.71
8358.00,0.71
8356.00,0.71
8354.00,0.72
8352.00,0.72
8350.00,0.72
8348.00,0.71
8346.00,0.71
8344.00,0.71
8342.00,0.71
8340.00,0.71
8338.00,0.70
8336.00,0.70
8334.00,0.70
8332.00,0.70
8330.00,0.70
8328.00,0.70
8326.00,0.70
8324.00,0.70
8322.00,0.70
8320.00,0.70
8318.00,0.70
8316.00,0.71
8314.00,0.71
8312.00,0.71
8310.00,0.72
8308.00,0.72
8306.00,0.72
8304.00,0.72
8302.00,0.72
8300.00,0.72
8298.00,0.72
8296.00,0.72
8294.00,0.72
8292.00,0.71
8290.00,0.71
8288.00,0.71
8286.00,0.71
8284.00,0.71
8282.00,0.71
8280.00,0.71
8278.00,0.70
8276.00,0.70
8274.00,0.70
8272.00,0.70
8270.00,0.70
8268.00,0.70
8266.00,0.70
8264.00,0.70
8262.00,0.70
8260.00,0.70
8258.00,0.70
8256.00,0.70
8254.00,0.70
8252.00,0.70
8250.00,0.70
8248.00,0.70
8246.00,0.70
8244.00,0.70
8242.00,0.70
8240.00,0.71
8238.00,0.71
8236.00,0.71
8234.00,0.71
8232.00,0.71
8230.00,0.71
8228.00,0.71
8226.00,0.71
8224.00,0.71
8222.00,0.71
8220.00,0.71
8218.00,0.71
8216.00,0.70
8214.00,0.70
8212.00,0.70
8210.00,0.70
8208.00,0.71
8206.00,0.71
8204.00,0.71
8202.00,0.71
8200.00,0.72
8198.00,0.72
8196.00,0.72
8194.00,0.72
8192.00,0.72
8190.00,0.71
8188.00,0.71
8186.00,0.71
8184.00,0.71
8182.00,0.71
8180.00,0.72
8178.00,0.72
8176.00,0.72
8174.00,0.72
8172.00,0.72
8170.00,0.72
8168.00,0.72
8166.00,0.71
8164.00,0.71
8162.00,0.71
8160.00,0.71
8158.00,0.70
8156.00,0.70
8154.00,0.70
8152.00,0.70
8150.00,0.71
8148.00,0.71
8146.00,0.71
8144.00,0.71
8142.00,0.71
8140.00,0.72
8138.00,0.72
8136.00,0.72
8134.00,0.72
8132.00,0.72
8130.00,0.71
8128.00,0.71
8126.00,0.71
8124.00,0.71
8122.00,0.71
8120.00,0.71
8118.00,0.71
8116.00,0.71
8114.00,0.71
8112.00,0.71
8110.00,0.71
8108.00,0.70
8106.00,0.70
8104.00,0.70
8102.00,0.70
8100.00,0.70
8098.00,0.70
8096.00,0.70
8094.00,0.70
8092.00,0.70
8090.00,0.70
8088.00,0.70
8086.00,0.70
8084.00,0.70
8082.00,0.70
8080.00,0.70
8078.00,0.70
8076.00,0.70
8074.00,0.70
8072.00,0.70
8070.00,0.70
8068.00,0.71
8066.00,0.71
8064.00,0.71
8062.00,0.71
8060.00,0.71
8058.00,0.71
8056.00,0.71
8054.00,0.71
8052.00,0.71
8050.00,0.71
8048.00,0.71
8046.00,0.71
8044.00,0.71
8042.00,0.71
8040.00,0.71
8038.00,0.70
8036.00,0.70
8034.00,0.70
8032.00,0.70
8030.00,0.70
8028.00,0.70
8026.00,0.70
8024.00,0.70
8022.00,0.70
8020.00,0.70
8018.00,0.70
8016.00,0.71
8014.00,0.71
8012.00,0.71
8010.00,0.71
8008.00,0.71
8006.00,0.71
8004.00,0.71
8002.00,0.71
8000.00,0.72
7998.00,0.72
7996.00,0.72
7994.00,0.72
7992.00,0.72
7990.00,0.72
7988.00,0.72
7986.00,0.72
7984.00,0.72
7982.00,0.72
7980.00,0.72
7978.00,0.72
7976.00,0.71
7974.00,0.71
7972.00,0.71
7970.00,0.71
7968.00,0.71
7966.00,0.71
7964.00,0.71
7962.00,0.71
7960.00,0.71
7958.00,0.71
7956.00,0.71
7954.00,0.71
7952.00,0.71
7950.00,0.71
7948.00,0.71
7946.00,0.71
7944.00,0.71
7942.00,0.71
7940.00,0.71
7938.00,0.71
7936.00,0.72
7934.00,0.72
7932.00,0.72
7930.00,0.72
7928.00,0.72
7926.00,0.72
7924.00,0.71
7922.00,0.71
7920.00,0.71
7918.00,0.71
7916.00,0.71
7914.00,0.71
7912.00,0.71
7910.00,0.71
7908.00,0.72
7906.00,0.72
7904.00,0.72
7902.00,0.72
7900.00,0.72
7898.00,0.72
7896.00,0.72
7894.00,0.72
7892.00,0.71
7890.00,0.71
7888.00,0.71
7886.00,0.71
7884.00,0.71
7882.00,0.71
7880.00,0.70
7878.00,0.70
7876.00,0.70
7874.00,0.70
7872.00,0.70
7870.00,0.70
7868.00,0.70
7866.00,0.70
7864.00,0.70
7862.00,0.70
7860.00,0.71
7858.00,0.71
7856.00,0.71
7854.00,0.71
7852.00,0.71
7850.00,0.71
7848.00,0.71
7846.00,0.71
7844.00,0.71
7842.00,0.71
7840.00,0.71
7838.00,0.71
7836.00,0.71
7834.00,0.71
7832.00,0.71
7830.00,0.71
7828.00,0.71
7826.00,0.71
7824.00,0.72
7822.00,0.72
7820.00,0.72
7818.00,0.72
7816.00,0.72
7814.00,0.72
7812.00,0.72
7810.00,0.72
7808.00,0.72
7806.00,0.72
7804.00,0.72
7802.00,0.72
7800.00,0.72
7798.00,0.72
7796.00,0.72
7794.00,0.72
7792.00,0.72
7790.00,0.72
7788.00,0.72
7786.00,0.71
7784.00,0.71
7782.00,0.71
7780.00,0.71
7778.00,0.71
7776.00,0.71
7774.00,0.71
7772.00,0.71
7770.00,0.71
7768.00,0.71
7766.00,0.71
7764.00,0.71
7762.00,0.71
7760.00,0.71
7758.00,0.71
7756.00,0.71
7754.00,0.71
7752.00,0.71
7750.00,0.72
7748.00,0.72
7746.00,0.72
7744.00,0.72
7742.00,0.72
7740.00,0.72
7738.00,0.72
7736.00,0.72
7734.00,0.72
7732.00,0.72
7730.00,0.72
7728.00,0.72
7726.00,0.72
7724.00,0.72
7722.00,0.72
7720.00,0.72
7718.00,0.72
7716.00,0.72
7714.00,0.72
7712.00,0.72
7710.00,0.72
7708.00,0.72
7706.00,0.72
7704.00,0.72
7702.00,0.72
7700.00,0.72
7698.00,0.72
7696.00,0.72
7694.00,0.71
7692.00,0.71
7690.00,0.71
7688.00,0.71
7686.00,0.71
7684.00,0.71
7682.00,0.72
7680.00,0.72
7678.00,0.72
7676.00,0.72
7674.00,0.72
7672.00,0.72
7670.00,0.72
7668.00,0.71
7666.00,0.71
7664.00,0.71
7662.00,0.71
7660.00,0.71
7658.00,0.71
7656.00,0.71
7654.00,0.71
7652.00,0.71
7650.00,0.71
7648.00,0.71
7646.00,0.71
7644.00,0.71
7642.00,0.71
7640.00,0.71
7638.00,0.71
7636.00,0.71
7634.00,0.71
7632.00,0.71
7630.00,0.71
7628.00,0.71
7626.00,0.71
7624.00,0.71
7622.00,0.71
7620.00,0.71
7618.00,0.71
7616.00,0.71
7614.00,0.71
7612.00,0.71
7610.00,0.71
7608.00,0.71
7606.00,0.71
7604.00,0.72
7602.00,0.72
7600.00,0.72
7598.00,0.72
7596.00,0.72
7594.00,0.72
7592.00,0.72
7590.00,0.72
7588.00,0.72
7586.00,0.72
7584.00,0.72
7582.00,0.72
7580.00,0.71
7578.00,0.71
7576.00,0.71
7574.00,0.71
7572.00,0.71
7570.00,0.71
7568.00,0.71
7566.00,0.71
7564.00,0.71
7562.00,0.71
7560.00,0.71
7558.00,0.71
7556.00,0.71
7554.00,0.71
7552.00,0.71
7550.00,0.71
7548.00,0.71
7546.00,0.71
7544.00,0.71
7542.00,0.71
7540.00,0.71
7538.00,0.71
7536.00,0.71
7534.00,0.71
7532.00,0.71
7530.00,0.71
7528.00,0.71
7526.00,0.71
7524.00,0.71
7522.00,0.71
7520.00,0.71
7518.00,0.71
7516.00,0.71
7514.00,0.71
7512.00,0.72
7510.00,0.72
7508.00,0.72
7506.00,0.72
7504.00,0.72
7502.00,0.72
7500.00,0.72
7498.00,0.72
7496.00,0.72
7494.00,0.71
7492.00,0.71
7490.00,0.71
7488.00,0.71
7486.00,0.71
7484.00,0.71
7482.00,0.71
7480.00,0.71
7478.00,0.71
7476.00,0.71
7474.00,0.71
7472.00,0.71
7470.00,0.71
7468.00,0.71
7466.00,0.71
7464.00,0.70
7462.00,0.70
7460.00,0.70
7458.00,0.70
7456.00,0.70
7454.00,0.70
7452.00,0.71
7450.00,0.71
7448.00,0.71
7446.00,0.71
7444.00,0.71
7442.00,0.71
7440.00,0.72
7438.00,0.72
7436.00,0.72
7434.00,0.72
7432.00,0.72
7430.00,0.72
7428.00,0.71
7426.00,0.71
7424.00,0.71
7422.00,0.71
7420.00,0.70
7418.00,0.70
7416.00,0.70
7414.00,0.70
7412.00,0.70
7410.00,0.70
7408.00,0.70
7406.00,0.70
7404.00,0.71
7402.00,0.71
7400.00,0.71
7398.00,0.71
7396.00,0.71
7394.00,0.71
7392.00,0.71
7390.00,0.71
7388.00,0.71
7386.00,0.71
7384.00,0.71
7382.00,0.71
7380.00,0.71
7378.00,0.71
7376.00,0.71
7374.00,0.71
7372.00,0.71
7370.00,0.71
7368.00,0.71
7366.00,0.71
7364.00,0.70
7362.00,0.70
7360.00,0.70
7358.00,0.70
7356.00,0.70
7354.00,0.70
7352.00,0.70
7350.00,0.70
7348.00,0.70
7346.00,0.70
7344.00,0.70
7342.00,0.70
7340.00,0.70
7338.00,0.70
7336.00,0.70
7334.00,0.70
7332.00,0.70
7330.00,0.70
7328.00,0.70
7326.00,0.70
7324.00,0.70
7322.00,0.70
7320.00,0.70
7318.00,0.70
7316.00,0.70
7314.00,0.70
7312.00,0.70
7310.00,0.70
7308.00,0.70
7306.00,0.70
7304.00,0.70
7302.00,0.70
7300.00,0.70
7298.00,0.70
7296.00,0.71
7294.00,0.71
7292.00,0.71
7290.00,0.71
7288.00,0.71
7286.00,0.70
7284.00,0.70
7282.00,0.70
7280.00,0.70
7278.00,0.70
7276.00,0.70
7274.00,0.70
7272.00,0.70
7270.00,0.70
7268.00,0.70
7266.00,0.70
7264.00,0.70
7262.00,0.70
7260.00,0.70
7258.00,0.70
7256.00,0.70
7254.00,0.69
7252.00,0.69
7250.00,0.69
7248.00,0.69
7246.00,0.69
7244.00,0.69
7242.00,0.69
7240.00,0.69
7238.00,0.68
7236.00,0.68
7234.00,0.68
7232.00,0.68
7230.00,0.68
7228.00,0.68
7226.00,0.68
7224.00,0.68
7222.00,0.69
7220.00,0.69
7218.00,0.69
7216.00,0.69
7214.00,0.69
7212.00,0.69
7210.00,0.69
7208.00,0.68
7206.00,0.68
7204.00,0.68
7202.00,0.68
7200.00,0.68
7198.00,0.68
7196.00,0.68
7194.00,0.68
7192.00,0.68
7190.00,0.68
7188.00,0.68
7186.00,0.68
7184.00,0.67
7182.00,0.67
7180.00,0.67
7178.00,0.67
7176.00,0.67
7174.00,0.67
7172.00,0.67
7170.00,0.67
7168.00,0.67
7166.00,0.67
7164.00,0.67
7162.00,0.67
7160.00,0.67
7158.00,0.67
7156.00,0.67
7154.00,0.67
7152.00,0.66
7150.00,0.66
7148.00,0.66
7146.00,0.66
7144.00,0.66
7142.00,0.66
7140.00,0.66
7138.00,0.66
7136.00,0.66
7134.00,0.66
7132.00,0.66
7130.00,0.66
7128.00,0.65
7126.00,0.65
7124.00,0.65
7122.00,0.65
7120.00,0.65
7118.00,0.65
7116.00,0.65
7114.00,0.65
7112.00,0.65
7110.00,0.65
7108.00,0.65
7106.00,0.65
7104.00,0.65
7102.00,0.65
7100.00,0.65
7098.00,0.65
7096.00,0.65
7094.00,0.65
7092.00,0.65
7090.00,0.65
7088.00,0.65
7086.00,0.65
7084.00,0.65
7082.00,0.65
7080.00,0.65
7078.00,0.65
7076.00,0.65
7074.00,0.65
7072.00,0.65
7070.00,0.65
7068.00,0.65
7066.00,0.65
7064.00,0.65
7062.00,0.65
7060.00,0.65
7058.00,0.65
7056.00,0.64
7054.00,0.64
7052.00,0.64
7050.00,0.64
7048.00,0.64
7046.00,0.64
7044.00,0.64
7042.00,0.64
7040.00,0.64
7038.00,0.64
7036.00,0.64
7034.00,0.64
7032.00,0.64
7030.00,0.64
7028.00,0.64
7026.00,0.64
7024.00,0.64
7022.00,0.64
7020.00,0.64
7018.00,0.64
7016.00,0.64
7014.00,0.64
7012.00,0.64
7010.00,0.64
7008.00,0.64
7006.00,0.64
7004.00,0.64
7002.00,0.64
7000.00,0.64
6998.00,0.64
6996.00,0.64
6994.00,0.64
6992.00,0.64
6990.00,0.64
6988.00,0.64
6986.00,0.64
6984.00,0.64
6982.00,0.64
6980.00,0.64
6978.00,0.64
6976.00,0.64
6974.00,0.64
6972.00,0.64
6970.00,0.64
6968.00,0.64
6966.00,0.64
6964.00,0.64
6962.00,0.64
6960.00,0.63
6958.00,0.63
6956.00,0.63
6954.00,0.63
6952.00,0.63
6950.00,0.63
6948.00,0.63
6946.00,0.63
6944.00,0.63
6942.00,0.63
6940.00,0.63
6938.00,0.63
6936.00,0.63
