创建为新数据集,样品 1303 用户 Administrator 日期 星期六, 八月 17 2019
cm-1,%T
10000.00,0.75
9998.00,0.75
9996.00,0.75
9994.00,0.75
9992.00,0.75
9990.00,0.75
9988.00,0.75
9986.00,0.75
9984.00,0.75
9982.00,0.75
9980.00,0.75
9978.00,0.74
9976.00,0.74
9974.00,0.74
9972.00,0.74
9970.00,0.74
9968.00,0.74
9966.00,0.74
9964.00,0.74
9962.00,0.74
9960.00,0.74
9958.00,0.74
9956.00,0.74
9954.00,0.74
9952.00,0.74
9950.00,0.74
9948.00,0.74
9946.00,0.74
9944.00,0.74
9942.00,0.74
9940.00,0.74
9938.00,0.74
9936.00,0.74
9934.00,0.74
9932.00,0.74
9930.00,0.74
9928.00,0.74
9926.00,0.74
9924.00,0.74
9922.00,0.74
9920.00,0.74
9918.00,0.74
9916.00,0.74
9914.00,0.74
9912.00,0.74
9910.00,0.74
9908.00,0.74
9906.00,0.74
9904.00,0.73
9902.00,0.73
9900.00,0.73
9898.00,0.73
9896.00,0.73
9894.00,0.74
9892.00,0.74
9890.00,0.74
9888.00,0.74
9886.00,0.74
9884.00,0.74
9882.00,0.74
9880.00,0.74
9878.00,0.73
9876.00,0.73
9874.00,0.73
9872.00,0.73
9870.00,0.73
9868.00,0.73
9866.00,0.73
9864.00,0.73
9862.00,0.72
9860.00,0.72
9858.00,0.72
9856.00,0.72
9854.00,0.72
9852.00,0.72
9850.00,0.72
9848.00,0.72
9846.00,0.72
9844.00,0.72
9842.00,0.72
9840.00,0.72
9838.00,0.72
9836.00,0.72
9834.00,0.72
9832.00,0.72
9830.00,0.72
9828.00,0.72
9826.00,0.72
9824.00,0.72
9822.00,0.72
9820.00,0.72
9818.00,0.72
9816.00,0.72
9814.00,0.72
9812.00,0.72
9810.00,0.72
9808.00,0.72
9806.00,0.73
9804.00,0.73
9802.00,0.73
9800.00,0.73
9798.00,0.73
9796.00,0.73
9794.00,0.74
9792.00,0.74
9790.00,0.74
9788.00,0.74
9786.00,0.74
9784.00,0.74
9782.00,0.74
9780.00,0.74
9778.00,0.74
9776.00,0.74
9774.00,0.74
9772.00,0.74
9770.00,0.74
9768.00,0.73
9766.00,0.73
9764.00,0.73
9762.00,0.72
9760.00,0.72
9758.00,0.72
9756.00,0.71
9754.00,0.71
9752.00,0.70
9750.00,0.70
9748.00,0.69
9746.00,0.69
9744.00,0.69
9742.00,0.68
9740.00,0.68
9738.00,0.68
9736.00,0.68
9734.00,0.68
9732.00,0.68
9730.00,0.68
9728.00,0.68
9726.00,0.68
9724.00,0.68
9722.00,0.68
9720.00,0.69
9718.00,0.69
9716.00,0.69
9714.00,0.69
9712.00,0.70
9710.00,0.70
9708.00,0.70
9706.00,0.70
9704.00,0.71
9702.00,0.71
9700.00,0.71
9698.00,0.71
9696.00,0.71
9694.00,0.71
9692.00,0.71
9690.00,0.71
9688.00,0.71
9686.00,0.71
9684.00,0.71
9682.00,0.71
9680.00,0.71
9678.00,0.71
9676.00,0.71
9674.00,0.71
9672.00,0.71
9670.00,0.71
9668.00,0.71
9666.00,0.71
9664.00,0.72
9662.00,0.72
9660.00,0.72
9658.00,0.71
9656.00,0.71
9654.00,0.71
9652.00,0.71
9650.00,0.71
9648.00,0.71
9646.00,0.71
9644.00,0.71
9642.00,0.71
9640.00,0.71
9638.00,0.71
9636.00,0.70
9634.00,0.70
9632.00,0.70
9630.00,0.70
9628.00,0.70
9626.00,0.70
9624.00,0.70
9622.00,0.70
9620.00,0.70
9618.00,0.70
9616.00,0.70
9614.00,0.71
9612.00,0.71
9610.00,0.71
9608.00,0.71
9606.00,0.71
9604.00,0.71
9602.00,0.71
9600.00,0.71
9598.00,0.71
9596.00,0.71
9594.00,0.71
9592.00,0.71
9590.00,0.71
9588.00,0.71
9586.00,0.70
9584.00,0.70
9582.00,0.70
9580.00,0.70
9578.00,0.70
9576.00,0.70
9574.00,0.70
9572.00,0.70
9570.00,0.70
9568.00,0.70
9566.00,0.70
9564.00,0.70
9562.00,0.70
9560.00,0.70
9558.00,0.70
9556.00,0.70
9554.00,0.70
9552.00,0.70
9550.00,0.70
9548.00,0.70
9546.00,0.70
9544.00,0.70
9542.00,0.70
9540.00,0.70
9538.00,0.70
9536.00,0.70
9534.00,0.70
9532.00,0.70
9530.00,0.70
9528.00,0.70
9526.00,0.70
9524.00,0.70
9522.00,0.70
9520.00,0.70
9518.00,0.70
9516.00,0.70
9514.00,0.70
9512.00,0.70
9510.00,0.70
9508.00,0.70
9506.00,0.70
9504.00,0.70
9502.00,0.70
9500.00,0.70
9498.00,0.70
9496.00,0.70
9494.00,0.70
9492.00,0.70
9490.00,0.70
9488.00,0.70
9486.00,0.70
9484.00,0.70
9482.00,0.70
9480.00,0.70
9478.00,0.70
9476.00,0.70
9474.00,0.70
9472.00,0.70
9470.00,0.70
9468.00,0.70
9466.00,0.71
9464.00,0.71
9462.00,0.71
9460.00,0.71
9458.00,0.71
9456.00,0.71
9454.00,0.71
9452.00,0.71
9450.00,0.71
9448.00,0.71
9446.00,0.71
9444.00,0.71
9442.00,0.71
9440.00,0.71
9438.00,0.71
9436.00,0.71
9434.00,0.71
9432.00,0.71
9430.00,0.71
9428.00,0.71
9426.00,0.71
9424.00,0.71
9422.00,0.71
9420.00,0.71
9418.00,0.71
9416.00,0.71
9414.00,0.71
9412.00,0.71
9410.00,0.71
9408.00,0.71
9406.00,0.71
9404.00,0.71
9402.00,0.71
9400.00,0.71
9398.00,0.71
9396.00,0.71
9394.00,0.71
9392.00,0.71
9390.00,0.71
9388.00,0.71
9386.00,0.71
9384.00,0.71
9382.00,0.71
9380.00,0.71
9378.00,0.71
9376.00,0.71
9374.00,0.71
9372.00,0.72
9370.00,0.72
9368.00,0.72
9366.00,0.72
9364.00,0.72
9362.00,0.72
9360.00,0.72
9358.00,0.72
9356.00,0.72
9354.00,0.72
9352.00,0.72
9350.00,0.72
9348.00,0.72
9346.00,0.72
9344.00,0.72
9342.00,0.72
9340.00,0.72
9338.00,0.72
9336.00,0.72
9334.00,0.72
9332.00,0.72
9330.00,0.72
9328.00,0.72
9326.00,0.72
9324.00,0.72
9322.00,0.72
9320.00,0.72
9318.00,0.72
9316.00,0.72
9314.00,0.72
9312.00,0.72
9310.00,0.72
9308.00,0.72
9306.00,0.72
9304.00,0.72
9302.00,0.72
9300.00,0.72
9298.00,0.72
9296.00,0.72
9294.00,0.72
9292.00,0.72
9290.00,0.72
9288.00,0.72
9286.00,0.72
9284.00,0.72
9282.00,0.72
9280.00,0.72
9278.00,0.72
9276.00,0.72
9274.00,0.72
9272.00,0.72
9270.00,0.72
9268.00,0.73
9266.00,0.73
9264.00,0.73
9262.00,0.73
9260.00,0.73
9258.00,0.73
9256.00,0.73
9254.00,0.73
9252.00,0.73
9250.00,0.73
9248.00,0.73
9246.00,0.73
9244.00,0.73
9242.00,0.72
9240.00,0.72
9238.00,0.72
9236.00,0.72
9234.00,0.72
9232.00,0.72
9230.00,0.72
9228.00,0.72
9226.00,0.72
9224.00,0.72
9222.00,0.72
9220.00,0.72
9218.00,0.72
9216.00,0.72
9214.00,0.72
9212.00,0.72
9210.00,0.72
9208.00,0.72
9206.00,0.72
9204.00,0.72
9202.00,0.72
9200.00,0.72
9198.00,0.72
9196.00,0.72
9194.00,0.72
9192.00,0.72
9190.00,0.72
9188.00,0.72
9186.00,0.71
9184.00,0.71
9182.00,0.71
9180.00,0.71
9178.00,0.71
9176.00,0.71
9174.00,0.71
9172.00,0.71
9170.00,0.71
9168.00,0.71
9166.00,0.71
9164.00,0.71
9162.00,0.71
9160.00,0.71
9158.00,0.71
9156.00,0.71
9154.00,0.72
9152.00,0.72
9150.00,0.72
9148.00,0.72
9146.00,0.72
9144.00,0.72
9142.00,0.72
9140.00,0.72
9138.00,0.73
9136.00,0.73
9134.00,0.73
9132.00,0.73
9130.00,0.73
9128.00,0.73
9126.00,0.73
9124.00,0.73
9122.00,0.73
9120.00,0.73
9118.00,0.73
9116.00,0.73
9114.00,0.73
9112.00,0.73
9110.00,0.73
9108.00,0.73
9106.00,0.73
9104.00,0.73
9102.00,0.73
9100.00,0.73
9098.00,0.73
9096.00,0.72
9094.00,0.72
9092.00,0.72
9090.00,0.72
9088.00,0.72
9086.00,0.72
9084.00,0.72
9082.00,0.72
9080.00,0.72
9078.00,0.72
9076.00,0.72
9074.00,0.72
9072.00,0.72
9070.00,0.72
9068.00,0.72
9066.00,0.72
9064.00,0.72
9062.00,0.72
9060.00,0.72
9058.00,0.72
9056.00,0.72
9054.00,0.71
9052.00,0.71
9050.00,0.71
9048.00,0.72
9046.00,0.72
9044.00,0.72
9042.00,0.72
9040.00,0.72
9038.00,0.72
9036.00,0.72
9034.00,0.72
9032.00,0.72
9030.00,0.72
9028.00,0.72
9026.00,0.72
9024.00,0.72
9022.00,0.72
9020.00,0.72
9018.00,0.73
9016.00,0.73
9014.00,0.73
9012.00,0.73
9010.00,0.73
9008.00,0.73
9006.00,0.73
9004.00,0.73
9002.00,0.73
9000.00,0.73
8998.00,0.73
8996.00,0.73
8994.00,0.73
8992.00,0.73
8990.00,0.73
8988.00,0.73
8986.00,0.74
8984.00,0.74
8982.00,0.74
8980.00,0.74
8978.00,0.74
8976.00,0.74
8974.00,0.74
8972.00,0.74
8970.00,0.74
8968.00,0.74
8966.00,0.74
8964.00,0.74
8962.00,0.74
8960.00,0.74
8958.00,0.74
8956.00,0.74
8954.00,0.74
8952.00,0.74
8950.00,0.74
8948.00,0.74
8946.00,0.74
8944.00,0.74
8942.00,0.74
8940.00,0.74
8938.00,0.73
8936.00,0.73
8934.00,0.73
8932.00,0.73
8930.00,0.73
8928.00,0.73
8926.00,0.73
8924.00,0.73
8922.00,0.73
8920.00,0.73
8918.00,0.73
8916.00,0.73
8914.00,0.73
8912.00,0.73
8910.00,0.73
8908.00,0.73
8906.00,0.73
8904.00,0.72
8902.00,0.72
8900.00,0.72
8898.00,0.72
8896.00,0.72
8894.00,0.72
8892.00,0.72
8890.00,0.72
8888.00,0.72
8886.00,0.72
8884.00,0.72
8882.00,0.72
8880.00,0.72
8878.00,0.72
8876.00,0.72
8874.00,0.72
8872.00,0.72
8870.00,0.72
8868.00,0.72
8866.00,0.72
8864.00,0.72
8862.00,0.72
8860.00,0.72
8858.00,0.72
8856.00,0.72
8854.00,0.72
8852.00,0.72
8850.00,0.72
8848.00,0.72
8846.00,0.72
8844.00,0.72
8842.00,0.72
8840.00,0.72
8838.00,0.72
8836.00,0.72
8834.00,0.72
8832.00,0.72
8830.00,0.72
8828.00,0.72
8826.00,0.72
8824.00,0.72
8822.00,0.72
8820.00,0.72
8818.00,0.72
8816.00,0.72
8814.00,0.72
8812.00,0.72
8810.00,0.72
8808.00,0.72
8806.00,0.72
8804.00,0.72
8802.00,0.72
8800.00,0.72
8798.00,0.72
8796.00,0.72
8794.00,0.72
8792.00,0.72
8790.00,0.72
8788.00,0.72
8786.00,0.72
8784.00,0.72
8782.00,0.72
8780.00,0.72
8778.00,0.72
8776.00,0.72
8774.00,0.72
8772.00,0.72
8770.00,0.71
8768.00,0.71
8766.00,0.71
8764.00,0.71
8762.00,0.71
8760.00,0.71
8758.00,0.71
8756.00,0.71
8754.00,0.71
8752.00,0.71
8750.00,0.71
8748.00,0.71
8746.00,0.71
8744.00,0.71
8742.00,0.71
8740.00,0.71
8738.00,0.71
8736.00,0.71
8734.00,0.71
8732.00,0.71
8730.00,0.71
8728.00,0.71
8726.00,0.71
8724.00,0.71
8722.00,0.71
8720.00,0.72
8718.00,0.72
8716.00,0.72
8714.00,0.72
8712.00,0.72
8710.00,0.72
8708.00,0.72
8706.00,0.72
8704.00,0.72
8702.00,0.72
8700.00,0.72
8698.00,0.72
8696.00,0.72
8694.00,0.72
8692.00,0.72
8690.00,0.72
8688.00,0.72
8686.00,0.72
8684.00,0.72
8682.00,0.72
8680.00,0.72
8678.00,0.72
8676.00,0.72
8674.00,0.72
8672.00,0.72
8670.00,0.72
8668.00,0.72
8666.00,0.72
8664.00,0.72
8662.00,0.72
8660.00,0.72
8658.00,0.72
8656.00,0.72
8654.00,0.72
8652.00,0.72
8650.00,0.72
8648.00,0.72
8646.00,0.72
8644.00,0.72
8642.00,0.72
8640.00,0.72
8638.00,0.72
8636.00,0.72
8634.00,0.72
8632.00,0.72
8630.00,0.72
8628.00,0.72
8626.00,0.72
8624.00,0.72
8622.00,0.72
8620.00,0.72
8618.00,0.72
8616.00,0.72
8614.00,0.72
8612.00,0.72
8610.00,0.72
8608.00,0.72
8606.00,0.72
8604.00,0.72
8602.00,0.72
8600.00,0.72
8598.00,0.72
8596.00,0.72
8594.00,0.72
8592.00,0.72
8590.00,0.72
8588.00,0.72
8586.00,0.72
8584.00,0.72
8582.00,0.72
8580.00,0.72
8578.00,0.72
8576.00,0.71
8574.00,0.71
8572.00,0.71
8570.00,0.71
8568.00,0.71
8566.00,0.71
8564.00,0.71
8562.00,0.71
8560.00,0.71
8558.00,0.71
8556.00,0.71
8554.00,0.71
8552.00,0.71
8550.00,0.71
8548.00,0.71
8546.00,0.71
8544.00,0.71
8542.00,0.71
8540.00,0.71
8538.00,0.71
8536.00,0.71
8534.00,0.71
8532.00,0.71
8530.00,0.71
8528.00,0.71
8526.00,0.71
8524.00,0.71
8522.00,0.71
8520.00,0.71
8518.00,0.71
8516.00,0.72
8514.00,0.72
8512.00,0.72
8510.00,0.72
8508.00,0.72
8506.00,0.72
8504.00,0.72
8502.00,0.72
8500.00,0.72
8498.00,0.72
8496.00,0.72
8494.00,0.72
8492.00,0.72
8490.00,0.72
8488.00,0.72
8486.00,0.72
8484.00,0.72
8482.00,0.72
8480.00,0.72
8478.00,0.72
8476.00,0.72
8474.00,0.72
8472.00,0.72
8470.00,0.72
8468.00,0.72
8466.00,0.72
8464.00,0.72
8462.00,0.72
8460.00,0.72
8458.00,0.72
8456.00,0.72
8454.00,0.72
8452.00,0.72
8450.00,0.72
8448.00,0.72
8446.00,0.72
8444.00,0.72
8442.00,0.72
8440.00,0.72
8438.00,0.72
8436.00,0.72
8434.00,0.72
8432.00,0.72
8430.00,0.72
8428.00,0.72
8426.00,0.72
8424.00,0.72
8422.00,0.72
8420.00,0.72
8418.00,0.72
8416.00,0.72
8414.00,0.72
8412.00,0.72
8410.00,0.72
8408.00,0.72
8406.00,0.72
8404.00,0.72
8402.00,0.72
8400.00,0.72
8398.00,0.72
8396.00,0.72
8394.00,0.72
8392.00,0.72
8390.00,0.72
8388.00,0.72
8386.00,0.72
8384.00,0.72
8382.00,0.72
8380.00,0.72
8378.00,0.72
8376.00,0.72
8374.00,0.72
8372.00,0.72
8370.00,0.72
8368.00,0.72
8366.00,0.72
8364.00,0.72
8362.00,0.72
8360.00,0.72
8358.00,0.72
8356.00,0.72
8354.00,0.72
8352.00,0.72
8350.00,0.72
8348.00,0.72
8346.00,0.72
8344.00,0.72
8342.00,0.72
8340.00,0.72
8338.00,0.72
8336.00,0.72
8334.00,0.73
8332.00,0.73
8330.00,0.73
8328.00,0.73
8326.00,0.73
8324.00,0.73
8322.00,0.73
8320.00,0.73
8318.00,0.73
8316.00,0.73
8314.00,0.73
8312.00,0.73
8310.00,0.73
8308.00,0.73
8306.00,0.73
8304.00,0.73
8302.00,0.73
8300.00,0.73
8298.00,0.73
8296.00,0.73
8294.00,0.73
8292.00,0.73
8290.00,0.73
8288.00,0.73
8286.00,0.73
8284.00,0.73
8282.00,0.73
8280.00,0.73
8278.00,0.73
8276.00,0.73
8274.00,0.73
8272.00,0.73
8270.00,0.73
8268.00,0.73
8266.00,0.73
8264.00,0.72
8262.00,0.72
8260.00,0.72
8258.00,0.72
8256.00,0.72
8254.00,0.72
8252.00,0.72
8250.00,0.72
8248.00,0.71
8246.00,0.71
8244.00,0.71
8242.00,0.71
8240.00,0.71
8238.00,0.71
8236.00,0.71
8234.00,0.72
8232.00,0.72
8230.00,0.72
8228.00,0.72
8226.00,0.72
8224.00,0.72
8222.00,0.72
8220.00,0.72
8218.00,0.72
8216.00,0.72
8214.00,0.72
8212.00,0.73
8210.00,0.73
8208.00,0.73
8206.00,0.73
8204.00,0.73
8202.00,0.72
8200.00,0.72
8198.00,0.72
8196.00,0.72
8194.00,0.72
8192.00,0.72
8190.00,0.72
8188.00,0.72
8186.00,0.72
8184.00,0.72
8182.00,0.72
8180.00,0.72
8178.00,0.72
8176.00,0.72
8174.00,0.72
8172.00,0.72
8170.00,0.72
8168.00,0.72
8166.00,0.72
8164.00,0.72
8162.00,0.72
8160.00,0.72
8158.00,0.72
8156.00,0.73
8154.00,0.73
8152.00,0.73
8150.00,0.73
8148.00,0.73
8146.00,0.73
8144.00,0.73
8142.00,0.73
8140.00,0.73
8138.00,0.73
8136.00,0.73
8134.00,0.73
8132.00,0.73
8130.00,0.73
8128.00,0.72
8126.00,0.72
8124.00,0.72
8122.00,0.73
8120.00,0.73
8118.00,0.73
8116.00,0.73
8114.00,0.73
8112.00,0.73
8110.00,0.73
8108.00,0.73
8106.00,0.73
8104.00,0.73
8102.00,0.73
8100.00,0.73
8098.00,0.73
8096.00,0.73
8094.00,0.73
8092.00,0.73
8090.00,0.73
8088.00,0.73
8086.00,0.73
8084.00,0.73
8082.00,0.73
8080.00,0.73
8078.00,0.73
8076.00,0.73
8074.00,0.73
8072.00,0.73
8070.00,0.73
8068.00,0.73
8066.00,0.73
8064.00,0.73
8062.00,0.73
8060.00,0.73
8058.00,0.73
8056.00,0.73
8054.00,0.73
8052.00,0.73
8050.00,0.73
8048.00,0.73
8046.00,0.73
8044.00,0.73
8042.00,0.73
8040.00,0.73
8038.00,0.73
8036.00,0.73
8034.00,0.73
8032.00,0.73
8030.00,0.73
8028.00,0.73
8026.00,0.73
8024.00,0.73
8022.00,0.73
8020.00,0.73
8018.00,0.73
8016.00,0.73
8014.00,0.73
8012.00,0.73
8010.00,0.73
8008.00,0.73
8006.00,0.73
8004.00,0.73
8002.00,0.73
8000.00,0.73
7998.00,0.73
7996.00,0.74
7994.00,0.74
7992.00,0.74
7990.00,0.74
7988.00,0.74
7986.00,0.74
7984.00,0.74
7982.00,0.74
7980.00,0.74
7978.00,0.74
7976.00,0.74
7974.00,0.74
7972.00,0.74
7970.00,0.74
7968.00,0.74
7966.00,0.74
7964.00,0.74
7962.00,0.74
7960.00,0.74
7958.00,0.74
7956.00,0.74
7954.00,0.74
7952.00,0.74
7950.00,0.74
7948.00,0.74
7946.00,0.74
7944.00,0.74
7942.00,0.74
7940.00,0.74
7938.00,0.74
7936.00,0.74
7934.00,0.74
7932.00,0.74
7930.00,0.74
7928.00,0.74
7926.00,0.74
7924.00,0.74
7922.00,0.74
7920.00,0.74
7918.00,0.74
7916.00,0.74
7914.00,0.74
7912.00,0.74
7910.00,0.74
7908.00,0.74
7906.00,0.74
7904.00,0.74
7902.00,0.74
7900.00,0.74
7898.00,0.74
7896.00,0.74
7894.00,0.74
7892.00,0.74
7890.00,0.74
7888.00,0.74
7886.00,0.74
7884.00,0.74
7882.00,0.73
7880.00,0.73
7878.00,0.73
7876.00,0.73
7874.00,0.73
7872.00,0.73
7870.00,0.73
7868.00,0.73
7866.00,0.73
7864.00,0.73
7862.00,0.73
7860.00,0.73
7858.00,0.73
7856.00,0.73
7854.00,0.73
7852.00,0.73
7850.00,0.73
7848.00,0.73
7846.00,0.73
7844.00,0.73
7842.00,0.73
7840.00,0.73
7838.00,0.73
7836.00,0.73
7834.00,0.73
7832.00,0.73
7830.00,0.73
7828.00,0.73
7826.00,0.73
7824.00,0.74
7822.00,0.74
7820.00,0.74
7818.00,0.74
7816.00,0.74
7814.00,0.74
7812.00,0.74
7810.00,0.74
7808.00,0.74
7806.00,0.74
7804.00,0.74
7802.00,0.75
7800.00,0.75
7798.00,0.75
7796.00,0.75
7794.00,0.75
7792.00,0.75
7790.00,0.75
7788.00,0.75
7786.00,0.75
7784.00,0.75
7782.00,0.75
7780.00,0.75
7778.00,0.75
7776.00,0.75
7774.00,0.75
7772.00,0.75
7770.00,0.75
7768.00,0.75
7766.00,0.74
7764.00,0.74
7762.00,0.74
7760.00,0.74
7758.00,0.74
7756.00,0.74
7754.00,0.74
7752.00,0.74
7750.00,0.74
7748.00,0.74
7746.00,0.73
7744.00,0.73
7742.00,0.73
7740.00,0.73
7738.00,0.73
7736.00,0.73
7734.00,0.73
7732.00,0.73
7730.00,0.73
7728.00,0.73
7726.00,0.73
7724.00,0.73
7722.00,0.73
7720.00,0.73
7718.00,0.73
7716.00,0.74
7714.00,0.74
7712.00,0.74
7710.00,0.74
7708.00,0.74
7706.00,0.74
7704.00,0.74
7702.00,0.74
7700.00,0.74
7698.00,0.74
7696.00,0.74
7694.00,0.74
7692.00,0.74
7690.00,0.74
7688.00,0.74
7686.00,0.74
7684.00,0.74
7682.00,0.74
7680.00,0.74
7678.00,0.74
7676.00,0.74
7674.00,0.74
7672.00,0.74
7670.00,0.74
7668.00,0.74
7666.00,0.74
7664.00,0.74
7662.00,0.74
7660.00,0.74
7658.00,0.74
7656.00,0.74
7654.00,0.74
7652.00,0.75
7650.00,0.75
7648.00,0.75
7646.00,0.75
7644.00,0.75
7642.00,0.75
7640.00,0.75
7638.00,0.75
7636.00,0.75
7634.00,0.74
7632.00,0.74
7630.00,0.74
7628.00,0.74
7626.00,0.74
7624.00,0.74
7622.00,0.74
7620.00,0.74
7618.00,0.74
7616.00,0.74
7614.00,0.74
7612.00,0.74
7610.00,0.74
7608.00,0.74
7606.00,0.74
7604.00,0.74
7602.00,0.74
7600.00,0.74
7598.00,0.74
7596.00,0.74
7594.00,0.74
7592.00,0.74
7590.00,0.74
7588.00,0.74
7586.00,0.74
7584.00,0.74
7582.00,0.74
7580.00,0.74
7578.00,0.74
7576.00,0.74
7574.00,0.74
7572.00,0.74
7570.00,0.74
7568.00,0.74
7566.00,0.74
7564.00,0.74
7562.00,0.74
7560.00,0.74
7558.00,0.74
7556.00,0.74
7554.00,0.74
7552.00,0.74
7550.00,0.74
7548.00,0.74
7546.00,0.74
7544.00,0.74
7542.00,0.74
7540.00,0.74
7538.00,0.74
7536.00,0.74
7534.00,0.74
7532.00,0.74
7530.00,0.74
7528.00,0.74
7526.00,0.74
7524.00,0.74
7522.00,0.74
7520.00,0.74
7518.00,0.74
7516.00,0.74
7514.00,0.74
7512.00,0.74
7510.00,0.74
7508.00,0.74
7506.00,0.74
7504.00,0.74
7502.00,0.74
7500.00,0.74
7498.00,0.74
7496.00,0.74
7494.00,0.74
7492.00,0.74
7490.00,0.74
7488.00,0.74
7486.00,0.74
7484.00,0.74
7482.00,0.74
7480.00,0.74
7478.00,0.74
7476.00,0.74
7474.00,0.74
7472.00,0.74
7470.00,0.74
7468.00,0.74
7466.00,0.74
7464.00,0.74
7462.00,0.74
7460.00,0.74
7458.00,0.74
7456.00,0.74
7454.00,0.74
7452.00,0.74
7450.00,0.74
7448.00,0.74
7446.00,0.74
7444.00,0.74
7442.00,0.75
7440.00,0.74
7438.00,0.74
7436.00,0.74
7434.00,0.74
7432.00,0.74
7430.00,0.74
7428.00,0.74
7426.00,0.74
7424.00,0.74
7422.00,0.74
7420.00,0.74
7418.00,0.74
7416.00,0.74
7414.00,0.74
7412.00,0.74
7410.00,0.74
7408.00,0.74
7406.00,0.73
7404.00,0.73
7402.00,0.73
7400.00,0.73
7398.00,0.73
7396.00,0.73
7394.00,0.73
7392.00,0.73
7390.00,0.73
7388.00,0.73
7386.00,0.73
7384.00,0.73
7382.00,0.73
7380.00,0.73
7378.00,0.72
7376.00,0.72
7374.00,0.72
7372.00,0.72
7370.00,0.72
7368.00,0.72
7366.00,0.72
7364.00,0.72
7362.00,0.72
7360.00,0.72
7358.00,0.72
7356.00,0.72
7354.00,0.72
7352.00,0.72
7350.00,0.71
7348.00,0.71
7346.00,0.71
7344.00,0.71
7342.00,0.71
7340.00,0.71
7338.00,0.72
7336.00,0.72
7334.00,0.72
7332.00,0.72
7330.00,0.72
7328.00,0.72
7326.00,0.72
7324.00,0.72
7322.00,0.72
7320.00,0.72
7318.00,0.72
7316.00,0.72
7314.00,0.72
7312.00,0.72
7310.00,0.72
7308.00,0.72
7306.00,0.72
7304.00,0.72
7302.00,0.72
7300.00,0.72
7298.00,0.72
7296.00,0.72
7294.00,0.72
7292.00,0.72
7290.00,0.72
7288.00,0.72
7286.00,0.72
7284.00,0.72
7282.00,0.72
7280.00,0.72
7278.00,0.72
7276.00,0.72
7274.00,0.72
7272.00,0.72
7270.00,0.72
7268.00,0.72
7266.00,0.72
7264.00,0.72
7262.00,0.72
7260.00,0.72
7258.00,0.72
7256.00,0.72
7254.00,0.72
7252.00,0.72
7250.00,0.71
7248.00,0.71
7246.00,0.71
7244.00,0.71
7242.00,0.71
7240.00,0.71
7238.00,0.71
7236.00,0.71
7234.00,0.71
7232.00,0.71
7230.00,0.70
7228.00,0.70
7226.00,0.70
7224.00,0.70
7222.00,0.70
7220.00,0.70
7218.00,0.70
7216.00,0.70
7214.00,0.70
7212.00,0.70
7210.00,0.70
7208.00,0.70
7206.00,0.70
7204.00,0.69
7202.00,0.69
7200.00,0.69
7198.00,0.69
7196.00,0.69
7194.00,0.69
7192.00,0.69
7190.00,0.69
7188.00,0.69
7186.00,0.69
7184.00,0.68
7182.00,0.68
7180.00,0.68
7178.00,0.68
7176.00,0.68
7174.00,0.68
7172.00,0.68
7170.00,0.68
7168.00,0.68
7166.00,0.68
7164.00,0.67
7162.00,0.67
7160.00,0.67
7158.00,0.67
7156.00,0.67
7154.00,0.67
7152.00,0.67
7150.00,0.67
7148.00,0.67
7146.00,0.66
7144.00,0.66
7142.00,0.66
7140.00,0.66
7138.00,0.66
7136.00,0.66
7134.00,0.66
7132.00,0.66
7130.00,0.65
7128.00,0.65
7126.00,0.65
7124.00,0.65
7122.00,0.65
7120.00,0.65
7118.00,0.65
7116.00,0.65
7114.00,0.65
7112.00,0.65
7110.00,0.65
7108.00,0.65
7106.00,0.65
7104.00,0.65
7102.00,0.65
7100.00,0.65
7098.00,0.65
7096.00,0.65
7094.00,0.65
7092.00,0.64
7090.00,0.64
7088.00,0.64
7086.00,0.64
7084.00,0.64
7082.00,0.64
7080.00,0.64
7078.00,0.64
7076.00,0.64
7074.00,0.64
7072.00,0.64
7070.00,0.64
7068.00,0.64
7066.00,0.64
7064.00,0.64
7062.00,0.64
7060.00,0.64
7058.00,0.64
7056.00,0.64
7054.00,0.64
7052.00,0.64
7050.00,0.64
7048.00,0.63
7046.00,0.63
7044.00,0.63
7042.00,0.63
7040.00,0.63
7038.00,0.63
7036.00,0.63
7034.00,0.63
7032.00,0.63
7030.00,0.63
7028.00,0.63
7026.00,0.63
7024.00,0.63
7022.00,0.63
7020.00,0.63
7018.00,0.63
7016.00,0.63
7014.00,0.63
7012.00,0.63
7010.00,0.63
7008.00,0.63
7006.00,0.63
7004.00,0.63
7002.00,0.63
7000.00,0.63
6998.00,0.63
6996.00,0.63
6994.00,0.63
6992.00,0.63
6990.00,0.63
6988.00,0.62
6986.00,0.62
6984.00,0.62
6982.00,0.62
6980.00,0.62
6978.00,0.62
6976.00,0.62
6974.00,0.62
6972.00,0.62
6970.00,0.62
6968.00,0.62
6966.00,0.62
6964.00,0.62
6962.00,0.62
6960.00,0.62
6958.00,0.62
6956.00,0.62
6954.00,0.62
6952.00,0.62
6950.00,0.62
6948.00,0.62
6946.00,0.62
6944.00,0.62
6942.00,0.62
6940.00,0.62
6938.00,0.62
6936.00,0.62
