创建为新数据集,样品 1312 用户 Administrator 日期 星期六, 八月 17 2019
cm-1,%T
10000.00,0.96
9998.00,0.96
9996.00,0.96
9994.00,0.96
9992.00,0.96
9990.00,0.96
9988.00,0.95
9986.00,0.95
9984.00,0.95
9982.00,0.95
9980.00,0.95
9978.00,0.95
9976.00,0.95
9974.00,0.95
9972.00,0.95
9970.00,0.95
9968.00,0.95
9966.00,0.94
9964.00,0.94
9962.00,0.94
9960.00,0.94
9958.00,0.94
9956.00,0.94
9954.00,0.94
9952.00,0.94
9950.00,0.94
9948.00,0.94
9946.00,0.94
9944.00,0.94
9942.00,0.94
9940.00,0.94
9938.00,0.94
9936.00,0.94
9934.00,0.95
9932.00,0.95
9930.00,0.95
9928.00,0.95
9926.00,0.95
9924.00,0.95
9922.00,0.95
9920.00,0.95
9918.00,0.94
9916.00,0.94
9914.00,0.94
9912.00,0.94
9910.00,0.94
9908.00,0.94
9906.00,0.94
9904.00,0.94
9902.00,0.94
9900.00,0.93
9898.00,0.93
9896.00,0.93
9894.00,0.93
9892.00,0.93
9890.00,0.93
9888.00,0.94
9886.00,0.94
9884.00,0.94
9882.00,0.94
9880.00,0.94
9878.00,0.94
9876.00,0.94
9874.00,0.94
9872.00,0.94
9870.00,0.94
9868.00,0.94
9866.00,0.94
9864.00,0.94
9862.00,0.94
9860.00,0.94
9858.00,0.94
9856.00,0.94
9854.00,0.94
9852.00,0.94
9850.00,0.94
9848.00,0.94
9846.00,0.94
9844.00,0.94
9842.00,0.94
9840.00,0.94
9838.00,0.94
9836.00,0.94
9834.00,0.94
9832.00,0.94
9830.00,0.94
9828.00,0.94
9826.00,0.94
9824.00,0.94
9822.00,0.94
9820.00,0.94
9818.00,0.94
9816.00,0.94
9814.00,0.94
9812.00,0.94
9810.00,0.94
9808.00,0.94
9806.00,0.94
9804.00,0.94
9802.00,0.94
9800.00,0.94
9798.00,0.94
9796.00,0.94
9794.00,0.94
9792.00,0.94
9790.00,0.94
9788.00,0.94
9786.00,0.94
9784.00,0.94
9782.00,0.94
9780.00,0.94
9778.00,0.94
9776.00,0.94
9774.00,0.94
9772.00,0.94
9770.00,0.94
9768.00,0.94
9766.00,0.94
9764.00,0.94
9762.00,0.94
9760.00,0.94
9758.00,0.94
9756.00,0.94
9754.00,0.94
9752.00,0.94
9750.00,0.94
9748.00,0.94
9746.00,0.94
9744.00,0.94
9742.00,0.94
9740.00,0.94
9738.00,0.94
9736.00,0.94
9734.00,0.94
9732.00,0.94
9730.00,0.94
9728.00,0.94
9726.00,0.94
9724.00,0.94
9722.00,0.94
9720.00,0.94
9718.00,0.94
9716.00,0.94
9714.00,0.94
9712.00,0.94
9710.00,0.94
9708.00,0.94
9706.00,0.94
9704.00,0.94
9702.00,0.94
9700.00,0.94
9698.00,0.94
9696.00,0.94
9694.00,0.94
9692.00,0.94
9690.00,0.94
9688.00,0.94
9686.00,0.94
9684.00,0.94
9682.00,0.93
9680.00,0.93
9678.00,0.93
9676.00,0.93
9674.00,0.93
9672.00,0.93
9670.00,0.93
9668.00,0.93
9666.00,0.93
9664.00,0.93
9662.00,0.93
9660.00,0.93
9658.00,0.93
9656.00,0.93
9654.00,0.93
9652.00,0.93
9650.00,0.92
9648.00,0.92
9646.00,0.92
9644.00,0.92
9642.00,0.92
9640.00,0.92
9638.00,0.93
9636.00,0.93
9634.00,0.93
9632.00,0.93
9630.00,0.93
9628.00,0.93
9626.00,0.93
9624.00,0.93
9622.00,0.93
9620.00,0.94
9618.00,0.94
9616.00,0.94
9614.00,0.94
9612.00,0.94
9610.00,0.94
9608.00,0.95
9606.00,0.95
9604.00,0.95
9602.00,0.95
9600.00,0.95
9598.00,0.95
9596.00,0.95
9594.00,0.95
9592.00,0.94
9590.00,0.94
9588.00,0.94
9586.00,0.94
9584.00,0.94
9582.00,0.94
9580.00,0.94
9578.00,0.94
9576.00,0.93
9574.00,0.93
9572.00,0.93
9570.00,0.93
9568.00,0.93
9566.00,0.93
9564.00,0.93
9562.00,0.93
9560.00,0.93
9558.00,0.93
9556.00,0.93
9554.00,0.93
9552.00,0.93
9550.00,0.93
9548.00,0.93
9546.00,0.93
9544.00,0.93
9542.00,0.93
9540.00,0.93
9538.00,0.92
9536.00,0.92
9534.00,0.92
9532.00,0.92
9530.00,0.92
9528.00,0.92
9526.00,0.92
9524.00,0.92
9522.00,0.92
9520.00,0.92
9518.00,0.92
9516.00,0.92
9514.00,0.92
9512.00,0.92
9510.00,0.92
9508.00,0.92
9506.00,0.92
9504.00,0.92
9502.00,0.92
9500.00,0.92
9498.00,0.92
9496.00,0.92
9494.00,0.92
9492.00,0.92
9490.00,0.92
9488.00,0.92
9486.00,0.92
9484.00,0.92
9482.00,0.92
9480.00,0.92
9478.00,0.92
9476.00,0.92
9474.00,0.92
9472.00,0.93
9470.00,0.93
9468.00,0.93
9466.00,0.93
9464.00,0.93
9462.00,0.93
9460.00,0.93
9458.00,0.93
9456.00,0.93
9454.00,0.94
9452.00,0.94
9450.00,0.94
9448.00,0.94
9446.00,0.94
9444.00,0.94
9442.00,0.94
9440.00,0.94
9438.00,0.94
9436.00,0.94
9434.00,0.94
9432.00,0.94
9430.00,0.94
9428.00,0.94
9426.00,0.94
9424.00,0.94
9422.00,0.94
9420.00,0.94
9418.00,0.94
9416.00,0.94
9414.00,0.94
9412.00,0.94
9410.00,0.94
9408.00,0.94
9406.00,0.93
9404.00,0.93
9402.00,0.93
9400.00,0.93
9398.00,0.93
9396.00,0.93
9394.00,0.93
9392.00,0.93
9390.00,0.92
9388.00,0.92
9386.00,0.92
9384.00,0.92
9382.00,0.92
9380.00,0.92
9378.00,0.91
9376.00,0.91
9374.00,0.91
9372.00,0.91
9370.00,0.91
9368.00,0.91
9366.00,0.91
9364.00,0.91
9362.00,0.91
9360.00,0.92
9358.00,0.92
9356.00,0.92
9354.00,0.92
9352.00,0.92
9350.00,0.92
9348.00,0.92
9346.00,0.93
9344.00,0.93
9342.00,0.93
9340.00,0.93
9338.00,0.93
9336.00,0.93
9334.00,0.93
9332.00,0.93
9330.00,0.93
9328.00,0.93
9326.00,0.93
9324.00,0.93
9322.00,0.93
9320.00,0.93
9318.00,0.93
9316.00,0.93
9314.00,0.93
9312.00,0.93
9310.00,0.92
9308.00,0.92
9306.00,0.92
9304.00,0.92
9302.00,0.92
9300.00,0.92
9298.00,0.92
9296.00,0.92
9294.00,0.92
9292.00,0.92
9290.00,0.92
9288.00,0.92
9286.00,0.92
9284.00,0.92
9282.00,0.93
9280.00,0.93
9278.00,0.93
9276.00,0.93
9274.00,0.93
9272.00,0.93
9270.00,0.93
9268.00,0.94
9266.00,0.94
9264.00,0.94
9262.00,0.94
9260.00,0.94
9258.00,0.94
9256.00,0.94
9254.00,0.94
9252.00,0.94
9250.00,0.94
9248.00,0.94
9246.00,0.94
9244.00,0.94
9242.00,0.93
9240.00,0.93
9238.00,0.93
9236.00,0.93
9234.00,0.93
9232.00,0.93
9230.00,0.93
9228.00,0.93
9226.00,0.93
9224.00,0.93
9222.00,0.93
9220.00,0.93
9218.00,0.93
9216.00,0.93
9214.00,0.93
9212.00,0.93
9210.00,0.93
9208.00,0.93
9206.00,0.93
9204.00,0.93
9202.00,0.92
9200.00,0.92
9198.00,0.92
9196.00,0.92
9194.00,0.92
9192.00,0.92
9190.00,0.92
9188.00,0.92
9186.00,0.92
9184.00,0.92
9182.00,0.92
9180.00,0.92
9178.00,0.92
9176.00,0.92
9174.00,0.92
9172.00,0.92
9170.00,0.92
9168.00,0.92
9166.00,0.92
9164.00,0.93
9162.00,0.93
9160.00,0.93
9158.00,0.93
9156.00,0.93
9154.00,0.93
9152.00,0.93
9150.00,0.93
9148.00,0.93
9146.00,0.94
9144.00,0.94
9142.00,0.94
9140.00,0.94
9138.00,0.94
9136.00,0.94
9134.00,0.94
9132.00,0.94
9130.00,0.94
9128.00,0.94
9126.00,0.94
9124.00,0.94
9122.00,0.94
9120.00,0.94
9118.00,0.94
9116.00,0.94
9114.00,0.94
9112.00,0.94
9110.00,0.94
9108.00,0.94
9106.00,0.94
9104.00,0.94
9102.00,0.94
9100.00,0.94
9098.00,0.94
9096.00,0.93
9094.00,0.93
9092.00,0.93
9090.00,0.93
9088.00,0.93
9086.00,0.93
9084.00,0.93
9082.00,0.93
9080.00,0.93
9078.00,0.93
9076.00,0.93
9074.00,0.93
9072.00,0.93
9070.00,0.93
9068.00,0.93
9066.00,0.93
9064.00,0.93
9062.00,0.93
9060.00,0.93
9058.00,0.93
9056.00,0.93
9054.00,0.93
9052.00,0.93
9050.00,0.93
9048.00,0.93
9046.00,0.93
9044.00,0.93
9042.00,0.93
9040.00,0.93
9038.00,0.93
9036.00,0.93
9034.00,0.93
9032.00,0.93
9030.00,0.93
9028.00,0.93
9026.00,0.93
9024.00,0.93
9022.00,0.93
9020.00,0.93
9018.00,0.93
9016.00,0.93
9014.00,0.93
9012.00,0.93
9010.00,0.93
9008.00,0.93
9006.00,0.93
9004.00,0.93
9002.00,0.93
9000.00,0.92
8998.00,0.92
8996.00,0.92
8994.00,0.92
8992.00,0.92
8990.00,0.92
8988.00,0.93
8986.00,0.93
8984.00,0.93
8982.00,0.93
8980.00,0.93
8978.00,0.93
8976.00,0.93
8974.00,0.94
8972.00,0.94
8970.00,0.94
8968.00,0.94
8966.00,0.94
8964.00,0.94
8962.00,0.95
8960.00,0.95
8958.00,0.95
8956.00,0.95
8954.00,0.95
8952.00,0.95
8950.00,0.95
8948.00,0.95
8946.00,0.95
8944.00,0.94
8942.00,0.94
8940.00,0.94
8938.00,0.94
8936.00,0.94
8934.00,0.94
8932.00,0.94
8930.00,0.94
8928.00,0.94
8926.00,0.94
8924.00,0.93
8922.00,0.93
8920.00,0.93
8918.00,0.93
8916.00,0.93
8914.00,0.93
8912.00,0.93
8910.00,0.93
8908.00,0.93
8906.00,0.93
8904.00,0.93
8902.00,0.93
8900.00,0.93
8898.00,0.93
8896.00,0.93
8894.00,0.93
8892.00,0.93
8890.00,0.93
8888.00,0.93
8886.00,0.93
8884.00,0.93
8882.00,0.93
8880.00,0.93
8878.00,0.93
8876.00,0.93
8874.00,0.93
8872.00,0.93
8870.00,0.93
8868.00,0.93
8866.00,0.92
8864.00,0.92
8862.00,0.92
8860.00,0.92
8858.00,0.92
8856.00,0.92
8854.00,0.92
8852.00,0.93
8850.00,0.93
8848.00,0.93
8846.00,0.93
8844.00,0.93
8842.00,0.93
8840.00,0.93
8838.00,0.93
8836.00,0.93
8834.00,0.94
8832.00,0.94
8830.00,0.94
8828.00,0.94
8826.00,0.94
8824.00,0.94
8822.00,0.94
8820.00,0.94
8818.00,0.94
8816.00,0.94
8814.00,0.94
8812.00,0.94
8810.00,0.94
8808.00,0.94
8806.00,0.94
8804.00,0.93
8802.00,0.93
8800.00,0.93
8798.00,0.93
8796.00,0.93
8794.00,0.93
8792.00,0.93
8790.00,0.92
8788.00,0.92
8786.00,0.92
8784.00,0.92
8782.00,0.92
8780.00,0.92
8778.00,0.92
8776.00,0.92
8774.00,0.92
8772.00,0.91
8770.00,0.91
8768.00,0.91
8766.00,0.91
8764.00,0.91
8762.00,0.91
8760.00,0.91
8758.00,0.91
8756.00,0.91
8754.00,0.91
8752.00,0.92
8750.00,0.92
8748.00,0.92
8746.00,0.92
8744.00,0.92
8742.00,0.92
8740.00,0.92
8738.00,0.92
8736.00,0.92
8734.00,0.92
8732.00,0.92
8730.00,0.92
8728.00,0.93
8726.00,0.93
8724.00,0.93
8722.00,0.93
8720.00,0.93
8718.00,0.93
8716.00,0.93
8714.00,0.93
8712.00,0.93
8710.00,0.93
8708.00,0.93
8706.00,0.93
8704.00,0.93
8702.00,0.93
8700.00,0.93
8698.00,0.93
8696.00,0.93
8694.00,0.93
8692.00,0.93
8690.00,0.93
8688.00,0.93
8686.00,0.93
8684.00,0.93
8682.00,0.92
8680.00,0.92
8678.00,0.92
8676.00,0.92
8674.00,0.92
8672.00,0.92
8670.00,0.92
8668.00,0.92
8666.00,0.92
8664.00,0.92
8662.00,0.92
8660.00,0.91
8658.00,0.91
8656.00,0.92
8654.00,0.92
8652.00,0.92
8650.00,0.92
8648.00,0.92
8646.00,0.92
8644.00,0.92
8642.00,0.92
8640.00,0.92
8638.00,0.92
8636.00,0.92
8634.00,0.92
8632.00,0.92
8630.00,0.92
8628.00,0.93
8626.00,0.93
8624.00,0.93
8622.00,0.93
8620.00,0.93
8618.00,0.93
8616.00,0.93
8614.00,0.93
8612.00,0.93
8610.00,0.93
8608.00,0.93
8606.00,0.93
8604.00,0.93
8602.00,0.93
8600.00,0.93
8598.00,0.93
8596.00,0.93
8594.00,0.93
8592.00,0.93
8590.00,0.93
8588.00,0.93
8586.00,0.93
8584.00,0.93
8582.00,0.93
8580.00,0.93
8578.00,0.93
8576.00,0.93
8574.00,0.93
8572.00,0.93
8570.00,0.93
8568.00,0.93
8566.00,0.93
8564.00,0.93
8562.00,0.93
8560.00,0.93
8558.00,0.93
8556.00,0.93
8554.00,0.92
8552.00,0.92
8550.00,0.92
8548.00,0.92
8546.00,0.92
8544.00,0.92
8542.00,0.92
8540.00,0.92
8538.00,0.92
8536.00,0.92
8534.00,0.92
8532.00,0.92
8530.00,0.92
8528.00,0.92
8526.00,0.92
8524.00,0.92
8522.00,0.92
8520.00,0.92
8518.00,0.92
8516.00,0.92
8514.00,0.92
8512.00,0.92
8510.00,0.92
8508.00,0.92
8506.00,0.92
8504.00,0.92
8502.00,0.92
8500.00,0.92
8498.00,0.92
8496.00,0.92
8494.00,0.92
8492.00,0.92
8490.00,0.92
8488.00,0.92
8486.00,0.92
8484.00,0.93
8482.00,0.93
8480.00,0.93
8478.00,0.93
8476.00,0.93
8474.00,0.93
8472.00,0.93
8470.00,0.93
8468.00,0.93
8466.00,0.93
8464.00,0.93
8462.00,0.93
8460.00,0.93
8458.00,0.93
8456.00,0.93
8454.00,0.93
8452.00,0.93
8450.00,0.93
8448.00,0.93
8446.00,0.93
8444.00,0.93
8442.00,0.93
8440.00,0.93
8438.00,0.93
8436.00,0.93
8434.00,0.93
8432.00,0.93
8430.00,0.93
8428.00,0.93
8426.00,0.93
8424.00,0.93
8422.00,0.93
8420.00,0.93
8418.00,0.93
8416.00,0.93
8414.00,0.93
8412.00,0.93
8410.00,0.93
8408.00,0.94
8406.00,0.94
8404.00,0.93
8402.00,0.93
8400.00,0.93
8398.00,0.93
8396.00,0.93
8394.00,0.93
8392.00,0.93
8390.00,0.93
8388.00,0.93
8386.00,0.93
8384.00,0.93
8382.00,0.93
8380.00,0.93
8378.00,0.93
8376.00,0.93
8374.00,0.93
8372.00,0.93
8370.00,0.93
8368.00,0.93
8366.00,0.93
8364.00,0.93
8362.00,0.93
8360.00,0.93
8358.00,0.94
8356.00,0.94
8354.00,0.94
8352.00,0.93
8350.00,0.93
8348.00,0.93
8346.00,0.93
8344.00,0.93
8342.00,0.93
8340.00,0.93
8338.00,0.93
8336.00,0.93
8334.00,0.93
8332.00,0.93
8330.00,0.93
8328.00,0.93
8326.00,0.93
8324.00,0.93
8322.00,0.93
8320.00,0.93
8318.00,0.93
8316.00,0.93
8314.00,0.93
8312.00,0.93
8310.00,0.93
8308.00,0.93
8306.00,0.93
8304.00,0.93
8302.00,0.93
8300.00,0.93
8298.00,0.93
8296.00,0.93
8294.00,0.93
8292.00,0.93
8290.00,0.93
8288.00,0.93
8286.00,0.93
8284.00,0.93
8282.00,0.93
8280.00,0.93
8278.00,0.93
8276.00,0.93
8274.00,0.93
8272.00,0.93
8270.00,0.93
8268.00,0.93
8266.00,0.93
8264.00,0.93
8262.00,0.93
8260.00,0.93
8258.00,0.93
8256.00,0.93
8254.00,0.93
8252.00,0.93
8250.00,0.93
8248.00,0.93
8246.00,0.93
8244.00,0.93
8242.00,0.93
8240.00,0.93
8238.00,0.93
8236.00,0.93
8234.00,0.93
8232.00,0.93
8230.00,0.93
8228.00,0.93
8226.00,0.93
8224.00,0.93
8222.00,0.93
8220.00,0.93
8218.00,0.93
8216.00,0.93
8214.00,0.93
8212.00,0.93
8210.00,0.93
8208.00,0.93
8206.00,0.93
8204.00,0.93
8202.00,0.93
8200.00,0.93
8198.00,0.93
8196.00,0.93
8194.00,0.93
8192.00,0.93
8190.00,0.94
8188.00,0.94
8186.00,0.94
8184.00,0.94
8182.00,0.94
8180.00,0.94
8178.00,0.94
8176.00,0.94
8174.00,0.94
8172.00,0.94
8170.00,0.94
8168.00,0.94
8166.00,0.94
8164.00,0.93
8162.00,0.93
8160.00,0.93
8158.00,0.93
8156.00,0.93
8154.00,0.93
8152.00,0.93
8150.00,0.93
8148.00,0.93
8146.00,0.93
8144.00,0.94
8142.00,0.94
8140.00,0.94
8138.00,0.94
8136.00,0.94
8134.00,0.94
8132.00,0.94
8130.00,0.94
8128.00,0.94
8126.00,0.94
8124.00,0.94
8122.00,0.94
8120.00,0.95
8118.00,0.95
8116.00,0.95
8114.00,0.95
8112.00,0.95
8110.00,0.95
8108.00,0.95
8106.00,0.95
8104.00,0.95
8102.00,0.95
8100.00,0.95
8098.00,0.95
8096.00,0.95
8094.00,0.95
8092.00,0.95
8090.00,0.95
8088.00,0.94
8086.00,0.94
8084.00,0.94
8082.00,0.94
8080.00,0.94
8078.00,0.94
8076.00,0.94
8074.00,0.94
8072.00,0.94
8070.00,0.94
8068.00,0.94
8066.00,0.94
8064.00,0.94
8062.00,0.94
8060.00,0.94
8058.00,0.94
8056.00,0.95
8054.00,0.95
8052.00,0.95
8050.00,0.95
8048.00,0.95
8046.00,0.95
8044.00,0.95
8042.00,0.95
8040.00,0.95
8038.00,0.95
8036.00,0.95
8034.00,0.95
8032.00,0.95
8030.00,0.94
8028.00,0.94
8026.00,0.94
8024.00,0.94
8022.00,0.94
8020.00,0.94
8018.00,0.94
8016.00,0.94
8014.00,0.94
8012.00,0.94
8010.00,0.94
8008.00,0.94
8006.00,0.94
8004.00,0.94
8002.00,0.94
8000.00,0.94
7998.00,0.94
7996.00,0.94
7994.00,0.94
7992.00,0.94
7990.00,0.94
7988.00,0.94
7986.00,0.94
7984.00,0.94
7982.00,0.94
7980.00,0.94
7978.00,0.94
7976.00,0.94
7974.00,0.94
7972.00,0.95
7970.00,0.95
7968.00,0.95
7966.00,0.95
7964.00,0.95
7962.00,0.95
7960.00,0.95
7958.00,0.95
7956.00,0.95
7954.00,0.95
7952.00,0.95
7950.00,0.95
7948.00,0.95
7946.00,0.95
7944.00,0.95
7942.00,0.95
7940.00,0.95
7938.00,0.95
7936.00,0.95
7934.00,0.95
7932.00,0.95
7930.00,0.95
7928.00,0.95
7926.00,0.95
7924.00,0.95
7922.00,0.95
7920.00,0.95
7918.00,0.95
7916.00,0.95
7914.00,0.95
7912.00,0.95
7910.00,0.95
7908.00,0.95
7906.00,0.95
7904.00,0.95
7902.00,0.95
7900.00,0.95
7898.00,0.95
7896.00,0.95
7894.00,0.95
7892.00,0.95
7890.00,0.95
7888.00,0.95
7886.00,0.95
7884.00,0.95
7882.00,0.95
7880.00,0.95
7878.00,0.95
7876.00,0.95
7874.00,0.95
7872.00,0.95
7870.00,0.95
7868.00,0.95
7866.00,0.95
7864.00,0.95
7862.00,0.95
7860.00,0.95
7858.00,0.95
7856.00,0.95
7854.00,0.95
7852.00,0.94
7850.00,0.94
7848.00,0.94
7846.00,0.94
7844.00,0.94
7842.00,0.94
7840.00,0.94
7838.00,0.94
7836.00,0.94
7834.00,0.94
7832.00,0.94
7830.00,0.94
7828.00,0.94
7826.00,0.94
7824.00,0.94
7822.00,0.95
7820.00,0.95
7818.00,0.95
7816.00,0.95
7814.00,0.95
7812.00,0.95
7810.00,0.95
7808.00,0.95
7806.00,0.95
7804.00,0.95
7802.00,0.95
7800.00,0.95
7798.00,0.95
7796.00,0.95
7794.00,0.95
7792.00,0.95
7790.00,0.96
7788.00,0.96
7786.00,0.96
7784.00,0.96
7782.00,0.96
7780.00,0.96
7778.00,0.96
7776.00,0.96
7774.00,0.96
7772.00,0.96
7770.00,0.96
7768.00,0.96
7766.00,0.96
7764.00,0.96
7762.00,0.96
7760.00,0.95
7758.00,0.95
7756.00,0.95
7754.00,0.95
7752.00,0.95
7750.00,0.95
7748.00,0.95
7746.00,0.95
7744.00,0.95
7742.00,0.95
7740.00,0.95
7738.00,0.95
7736.00,0.95
7734.00,0.95
7732.00,0.95
7730.00,0.95
7728.00,0.95
7726.00,0.95
7724.00,0.95
7722.00,0.95
7720.00,0.95
7718.00,0.95
7716.00,0.95
7714.00,0.95
7712.00,0.95
7710.00,0.95
7708.00,0.95
7706.00,0.95
7704.00,0.95
7702.00,0.95
7700.00,0.95
7698.00,0.95
7696.00,0.95
7694.00,0.95
7692.00,0.95
7690.00,0.95
7688.00,0.95
7686.00,0.95
7684.00,0.95
7682.00,0.95
7680.00,0.95
7678.00,0.95
7676.00,0.95
7674.00,0.95
7672.00,0.95
7670.00,0.95
7668.00,0.95
7666.00,0.95
7664.00,0.95
7662.00,0.95
7660.00,0.95
7658.00,0.95
7656.00,0.95
7654.00,0.95
7652.00,0.95
7650.00,0.95
7648.00,0.95
7646.00,0.95
7644.00,0.95
7642.00,0.95
7640.00,0.95
7638.00,0.95
7636.00,0.95
7634.00,0.95
7632.00,0.95
7630.00,0.95
7628.00,0.95
7626.00,0.95
7624.00,0.95
7622.00,0.96
7620.00,0.96
7618.00,0.96
7616.00,0.96
7614.00,0.96
7612.00,0.96
7610.00,0.96
7608.00,0.96
7606.00,0.96
7604.00,0.96
7602.00,0.96
7600.00,0.96
7598.00,0.96
7596.00,0.96
7594.00,0.96
7592.00,0.96
7590.00,0.96
7588.00,0.96
7586.00,0.96
7584.00,0.96
7582.00,0.96
7580.00,0.96
7578.00,0.96
7576.00,0.96
7574.00,0.96
7572.00,0.96
7570.00,0.96
7568.00,0.96
7566.00,0.96
7564.00,0.96
7562.00,0.96
7560.00,0.96
7558.00,0.96
7556.00,0.96
7554.00,0.96
7552.00,0.96
7550.00,0.96
7548.00,0.96
7546.00,0.96
7544.00,0.96
7542.00,0.96
7540.00,0.96
7538.00,0.96
7536.00,0.96
7534.00,0.96
7532.00,0.96
7530.00,0.96
7528.00,0.96
7526.00,0.96
7524.00,0.96
7522.00,0.96
7520.00,0.96
7518.00,0.96
7516.00,0.96
7514.00,0.95
7512.00,0.95
7510.00,0.95
7508.00,0.95
7506.00,0.95
7504.00,0.95
7502.00,0.95
7500.00,0.95
7498.00,0.95
7496.00,0.95
7494.00,0.95
7492.00,0.95
7490.00,0.95
7488.00,0.95
7486.00,0.95
7484.00,0.95
7482.00,0.95
7480.00,0.95
7478.00,0.95
7476.00,0.95
7474.00,0.95
7472.00,0.95
7470.00,0.95
7468.00,0.95
7466.00,0.95
7464.00,0.95
7462.00,0.95
7460.00,0.95
7458.00,0.95
7456.00,0.95
7454.00,0.95
7452.00,0.95
7450.00,0.95
7448.00,0.95
7446.00,0.95
7444.00,0.95
7442.00,0.95
7440.00,0.95
7438.00,0.95
7436.00,0.95
7434.00,0.95
7432.00,0.95
7430.00,0.94
7428.00,0.94
7426.00,0.94
7424.00,0.94
7422.00,0.94
7420.00,0.94
7418.00,0.94
7416.00,0.94
7414.00,0.94
7412.00,0.94
7410.00,0.94
7408.00,0.94
7406.00,0.94
7404.00,0.94
7402.00,0.94
7400.00,0.94
7398.00,0.93
7396.00,0.93
7394.00,0.93
7392.00,0.93
7390.00,0.93
7388.00,0.93
7386.00,0.93
7384.00,0.93
7382.00,0.93
7380.00,0.93
7378.00,0.93
7376.00,0.93
7374.00,0.93
7372.00,0.93
7370.00,0.93
7368.00,0.93
7366.00,0.93
7364.00,0.93
7362.00,0.92
7360.00,0.92
7358.00,0.92
7356.00,0.92
7354.00,0.92
7352.00,0.92
7350.00,0.92
7348.00,0.92
7346.00,0.92
7344.00,0.92
7342.00,0.92
7340.00,0.92
7338.00,0.92
7336.00,0.92
7334.00,0.92
7332.00,0.92
7330.00,0.92
7328.00,0.92
7326.00,0.92
7324.00,0.92
7322.00,0.92
7320.00,0.92
7318.00,0.92
7316.00,0.92
7314.00,0.92
7312.00,0.92
7310.00,0.92
7308.00,0.92
7306.00,0.92
7304.00,0.92
7302.00,0.92
7300.00,0.92
7298.00,0.92
7296.00,0.92
7294.00,0.92
7292.00,0.92
7290.00,0.92
7288.00,0.92
7286.00,0.92
7284.00,0.92
7282.00,0.92
7280.00,0.92
7278.00,0.92
7276.00,0.92
7274.00,0.92
7272.00,0.92
7270.00,0.92
7268.00,0.92
7266.00,0.92
7264.00,0.92
7262.00,0.92
7260.00,0.91
7258.00,0.91
7256.00,0.91
7254.00,0.91
7252.00,0.91
7250.00,0.91
7248.00,0.91
7246.00,0.90
7244.00,0.90
7242.00,0.90
7240.00,0.90
7238.00,0.90
7236.00,0.89
7234.00,0.89
7232.00,0.89
7230.00,0.89
7228.00,0.89
7226.00,0.89
7224.00,0.89
7222.00,0.89
7220.00,0.88
7218.00,0.88
7216.00,0.88
7214.00,0.88
7212.00,0.88
7210.00,0.88
7208.00,0.88
7206.00,0.88
7204.00,0.88
7202.00,0.88
7200.00,0.88
7198.00,0.87
7196.00,0.87
7194.00,0.87
7192.00,0.87
7190.00,0.87
7188.00,0.87
7186.00,0.87
7184.00,0.87
7182.00,0.86
7180.00,0.86
7178.00,0.86
7176.00,0.86
7174.00,0.86
7172.00,0.86
7170.00,0.85
7168.00,0.85
7166.00,0.85
7164.00,0.85
7162.00,0.85
7160.00,0.84
7158.00,0.84
7156.00,0.84
7154.00,0.84
7152.00,0.84
7150.00,0.83
7148.00,0.83
7146.00,0.83
7144.00,0.83
7142.00,0.83
7140.00,0.83
7138.00,0.82
7136.00,0.82
7134.00,0.82
7132.00,0.82
7130.00,0.82
7128.00,0.82
7126.00,0.82
7124.00,0.82
7122.00,0.81
7120.00,0.81
7118.00,0.81
7116.00,0.81
7114.00,0.81
7112.00,0.81
7110.00,0.81
7108.00,0.81
7106.00,0.81
7104.00,0.80
7102.00,0.80
7100.00,0.80
7098.00,0.80
7096.00,0.80
7094.00,0.80
7092.00,0.80
7090.00,0.80
7088.00,0.80
7086.00,0.79
7084.00,0.79
7082.00,0.79
7080.00,0.79
7078.00,0.79
7076.00,0.79
7074.00,0.79
7072.00,0.79
7070.00,0.79
7068.00,0.79
7066.00,0.78
7064.00,0.78
7062.00,0.78
7060.00,0.78
7058.00,0.78
7056.00,0.78
7054.00,0.78
7052.00,0.78
7050.00,0.78
7048.00,0.77
7046.00,0.77
7044.00,0.77
7042.00,0.77
7040.00,0.77
7038.00,0.77
7036.00,0.77
7034.00,0.77
7032.00,0.77
7030.00,0.77
7028.00,0.77
7026.00,0.76
7024.00,0.76
7022.00,0.76
7020.00,0.76
7018.00,0.76
7016.00,0.76
7014.00,0.76
7012.00,0.76
7010.00,0.76
7008.00,0.76
7006.00,0.76
7004.00,0.76
7002.00,0.76
7000.00,0.76
6998.00,0.76
6996.00,0.75
6994.00,0.75
6992.00,0.75
6990.00,0.75
6988.00,0.75
6986.00,0.75
6984.00,0.75
6982.00,0.75
6980.00,0.75
6978.00,0.75
6976.00,0.75
6974.00,0.75
6972.00,0.75
6970.00,0.75
6968.00,0.75
6966.00,0.75
6964.00,0.75
6962.00,0.75
6960.00,0.75
6958.00,0.75
6956.00,0.75
6954.00,0.75
6952.00,0.75
6950.00,0.75
6948.00,0.75
6946.00,0.75
6944.00,0.75
6942.00,0.75
6940.00,0.75
6938.00,0.75
6936.00,0.74
