创建为新数据集,样品 444 用户 Administrator 日期 星期日, 七月 15 2018
cm-1,%T
10000.00,0.83
9999.00,0.83
9998.00,0.83
9997.00,0.83
9996.00,0.84
9995.00,0.84
9994.00,0.84
9993.00,0.84
9992.00,0.84
9991.00,0.83
9990.00,0.83
9989.00,0.83
9988.00,0.83
9987.00,0.83
9986.00,0.83
9985.00,0.83
9984.00,0.83
9983.00,0.83
9982.00,0.82
9981.00,0.82
9980.00,0.82
9979.00,0.82
9978.00,0.82
9977.00,0.82
9976.00,0.82
9975.00,0.82
9974.00,0.82
9973.00,0.82
9972.00,0.82
9971.00,0.82
9970.00,0.82
9969.00,0.82
9968.00,0.82
9967.00,0.82
9966.00,0.82
9965.00,0.82
9964.00,0.82
9963.00,0.82
9962.00,0.82
9961.00,0.82
9960.00,0.82
9959.00,0.82
9958.00,0.82
9957.00,0.82
9956.00,0.82
9955.00,0.82
9954.00,0.81
9953.00,0.81
9952.00,0.81
9951.00,0.81
9950.00,0.81
9949.00,0.81
9948.00,0.81
9947.00,0.81
9946.00,0.81
9945.00,0.81
9944.00,0.81
9943.00,0.81
9942.00,0.81
9941.00,0.81
9940.00,0.81
9939.00,0.81
9938.00,0.81
9937.00,0.81
9936.00,0.81
9935.00,0.81
9934.00,0.81
9933.00,0.81
9932.00,0.80
9931.00,0.80
9930.00,0.80
9929.00,0.80
9928.00,0.80
9927.00,0.80
9926.00,0.80
9925.00,0.80
9924.00,0.80
9923.00,0.80
9922.00,0.80
9921.00,0.80
9920.00,0.80
9919.00,0.80
9918.00,0.80
9917.00,0.80
9916.00,0.80
9915.00,0.80
9914.00,0.80
9913.00,0.80
9912.00,0.80
9911.00,0.80
9910.00,0.80
9909.00,0.80
9908.00,0.80
9907.00,0.80
9906.00,0.79
9905.00,0.79
9904.00,0.79
9903.00,0.79
9902.00,0.79
9901.00,0.79
9900.00,0.79
9899.00,0.79
9898.00,0.79
9897.00,0.78
9896.00,0.78
9895.00,0.78
9894.00,0.78
9893.00,0.78
9892.00,0.79
9891.00,0.79
9890.00,0.79
9889.00,0.79
9888.00,0.79
9887.00,0.79
9886.00,0.79
9885.00,0.79
9884.00,0.80
9883.00,0.80
9882.00,0.80
9881.00,0.80
9880.00,0.80
9879.00,0.80
9878.00,0.80
9877.00,0.80
9876.00,0.80
9875.00,0.80
9874.00,0.80
9873.00,0.80
9872.00,0.80
9871.00,0.80
9870.00,0.80
9869.00,0.80
9868.00,0.80
9867.00,0.80
9866.00,0.80
9865.00,0.81
9864.00,0.81
9863.00,0.81
9862.00,0.82
9861.00,0.82
9860.00,0.82
9859.00,0.82
9858.00,0.83
9857.00,0.83
9856.00,0.83
9855.00,0.83
9854.00,0.83
9853.00,0.83
9852.00,0.83
9851.00,0.83
9850.00,0.83
9849.00,0.83
9848.00,0.82
9847.00,0.82
9846.00,0.82
9845.00,0.81
9844.00,0.81
9843.00,0.81
9842.00,0.80
9841.00,0.80
9840.00,0.80
9839.00,0.80
9838.00,0.80
9837.00,0.80
9836.00,0.80
9835.00,0.80
9834.00,0.80
9833.00,0.80
9832.00,0.80
9831.00,0.80
9830.00,0.80
9829.00,0.80
9828.00,0.81
9827.00,0.81
9826.00,0.81
9825.00,0.81
9824.00,0.82
9823.00,0.82
9822.00,0.82
9821.00,0.82
9820.00,0.82
9819.00,0.82
9818.00,0.82
9817.00,0.82
9816.00,0.82
9815.00,0.82
9814.00,0.82
9813.00,0.81
9812.00,0.81
9811.00,0.81
9810.00,0.81
9809.00,0.80
9808.00,0.80
9807.00,0.80
9806.00,0.79
9805.00,0.79
9804.00,0.78
9803.00,0.78
9802.00,0.78
9801.00,0.78
9800.00,0.77
9799.00,0.77
9798.00,0.77
9797.00,0.77
9796.00,0.77
9795.00,0.77
9794.00,0.77
9793.00,0.78
9792.00,0.78
9791.00,0.78
9790.00,0.78
9789.00,0.79
9788.00,0.79
9787.00,0.80
9786.00,0.80
9785.00,0.80
9784.00,0.81
9783.00,0.81
9782.00,0.81
9781.00,0.82
9780.00,0.82
9779.00,0.82
9778.00,0.82
9777.00,0.82
9776.00,0.82
9775.00,0.82
9774.00,0.82
9773.00,0.82
9772.00,0.82
9771.00,0.82
9770.00,0.82
9769.00,0.81
9768.00,0.81
9767.00,0.81
9766.00,0.81
9765.00,0.81
9764.00,0.81
9763.00,0.81
9762.00,0.81
9761.00,0.80
9760.00,0.80
9759.00,0.80
9758.00,0.80
9757.00,0.80
9756.00,0.80
9755.00,0.80
9754.00,0.80
9753.00,0.80
9752.00,0.80
9751.00,0.80
9750.00,0.80
9749.00,0.80
9748.00,0.80
9747.00,0.80
9746.00,0.80
9745.00,0.80
9744.00,0.80
9743.00,0.80
9742.00,0.79
9741.00,0.79
9740.00,0.79
9739.00,0.79
9738.00,0.79
9737.00,0.79
9736.00,0.78
9735.00,0.78
9734.00,0.78
9733.00,0.78
9732.00,0.78
9731.00,0.78
9730.00,0.78
9729.00,0.77
9728.00,0.77
9727.00,0.77
9726.00,0.77
9725.00,0.77
9724.00,0.77
9723.00,0.77
9722.00,0.77
9721.00,0.77
9720.00,0.77
9719.00,0.77
9718.00,0.77
9717.00,0.77
9716.00,0.77
9715.00,0.77
9714.00,0.77
9713.00,0.77
9712.00,0.77
9711.00,0.77
9710.00,0.77
9709.00,0.78
9708.00,0.78
9707.00,0.78
9706.00,0.78
9705.00,0.78
9704.00,0.78
9703.00,0.79
9702.00,0.79
9701.00,0.79
9700.00,0.79
9699.00,0.79
9698.00,0.79
9697.00,0.80
9696.00,0.80
9695.00,0.80
9694.00,0.80
9693.00,0.80
9692.00,0.80
9691.00,0.81
9690.00,0.81
9689.00,0.81
9688.00,0.81
9687.00,0.81
9686.00,0.81
9685.00,0.81
9684.00,0.81
9683.00,0.81
9682.00,0.81
9681.00,0.81
9680.00,0.81
9679.00,0.81
9678.00,0.81
9677.00,0.81
9676.00,0.81
9675.00,0.81
9674.00,0.81
9673.00,0.81
9672.00,0.81
9671.00,0.80
9670.00,0.80
9669.00,0.80
9668.00,0.80
9667.00,0.80
9666.00,0.80
9665.00,0.80
9664.00,0.80
9663.00,0.80
9662.00,0.80
9661.00,0.80
9660.00,0.80
9659.00,0.80
9658.00,0.80
9657.00,0.80
9656.00,0.80
9655.00,0.80
9654.00,0.80
9653.00,0.80
9652.00,0.80
9651.00,0.80
9650.00,0.80
9649.00,0.80
9648.00,0.80
9647.00,0.80
9646.00,0.80
9645.00,0.80
9644.00,0.80
9643.00,0.80
9642.00,0.80
9641.00,0.81
9640.00,0.81
9639.00,0.81
9638.00,0.81
9637.00,0.81
9636.00,0.81
9635.00,0.81
9634.00,0.81
9633.00,0.81
9632.00,0.81
9631.00,0.81
9630.00,0.81
9629.00,0.81
9628.00,0.80
9627.00,0.80
9626.00,0.80
9625.00,0.80
9624.00,0.80
9623.00,0.80
9622.00,0.80
9621.00,0.80
9620.00,0.80
9619.00,0.80
9618.00,0.80
9617.00,0.80
9616.00,0.80
9615.00,0.80
9614.00,0.80
9613.00,0.80
9612.00,0.80
9611.00,0.80
9610.00,0.80
9609.00,0.80
9608.00,0.80
9607.00,0.80
9606.00,0.81
9605.00,0.81
9604.00,0.81
9603.00,0.81
9602.00,0.81
9601.00,0.81
9600.00,0.81
9599.00,0.81
9598.00,0.81
9597.00,0.81
9596.00,0.81
9595.00,0.80
9594.00,0.80
9593.00,0.80
9592.00,0.80
9591.00,0.80
9590.00,0.80
9589.00,0.79
9588.00,0.79
9587.00,0.79
9586.00,0.79
9585.00,0.79
9584.00,0.79
9583.00,0.79
9582.00,0.79
9581.00,0.80
9580.00,0.80
9579.00,0.80
9578.00,0.80
9577.00,0.80
9576.00,0.80
9575.00,0.80
9574.00,0.80
9573.00,0.80
9572.00,0.79
9571.00,0.79
9570.00,0.79
9569.00,0.79
9568.00,0.79
9567.00,0.79
9566.00,0.79
9565.00,0.79
9564.00,0.79
9563.00,0.79
9562.00,0.79
9561.00,0.79
9560.00,0.79
9559.00,0.79
9558.00,0.79
9557.00,0.79
9556.00,0.79
9555.00,0.79
9554.00,0.79
9553.00,0.79
9552.00,0.79
9551.00,0.79
9550.00,0.79
9549.00,0.79
9548.00,0.79
9547.00,0.79
9546.00,0.79
9545.00,0.79
9544.00,0.79
9543.00,0.79
9542.00,0.79
9541.00,0.79
9540.00,0.79
9539.00,0.79
9538.00,0.79
9537.00,0.79
9536.00,0.79
9535.00,0.79
9534.00,0.79
9533.00,0.79
9532.00,0.79
9531.00,0.79
9530.00,0.79
9529.00,0.79
9528.00,0.79
9527.00,0.79
9526.00,0.79
9525.00,0.79
9524.00,0.79
9523.00,0.79
9522.00,0.78
9521.00,0.78
9520.00,0.78
9519.00,0.78
9518.00,0.78
9517.00,0.78
9516.00,0.78
9515.00,0.78
9514.00,0.78
9513.00,0.79
9512.00,0.79
9511.00,0.79
9510.00,0.79
9509.00,0.79
9508.00,0.80
9507.00,0.80
9506.00,0.80
9505.00,0.80
9504.00,0.80
9503.00,0.80
9502.00,0.81
9501.00,0.81
9500.00,0.81
9499.00,0.81
9498.00,0.81
9497.00,0.81
9496.00,0.80
9495.00,0.80
9494.00,0.80
9493.00,0.80
9492.00,0.80
9491.00,0.80
9490.00,0.80
9489.00,0.80
9488.00,0.80
9487.00,0.80
9486.00,0.80
9485.00,0.80
9484.00,0.80
9483.00,0.80
9482.00,0.80
9481.00,0.80
9480.00,0.80
9479.00,0.80
9478.00,0.80
9477.00,0.80
9476.00,0.80
9475.00,0.80
9474.00,0.80
9473.00,0.80
9472.00,0.80
9471.00,0.80
9470.00,0.80
9469.00,0.80
9468.00,0.80
9467.00,0.80
9466.00,0.80
9465.00,0.80
9464.00,0.80
9463.00,0.80
9462.00,0.80
9461.00,0.80
9460.00,0.80
9459.00,0.80
9458.00,0.80
9457.00,0.80
9456.00,0.80
9455.00,0.80
9454.00,0.80
9453.00,0.79
9452.00,0.79
9451.00,0.79
9450.00,0.79
9449.00,0.79
9448.00,0.79
9447.00,0.79
9446.00,0.79
9445.00,0.79
9444.00,0.79
9443.00,0.79
9442.00,0.79
9441.00,0.79
9440.00,0.79
9439.00,0.79
9438.00,0.79
9437.00,0.79
9436.00,0.79
9435.00,0.79
9434.00,0.79
9433.00,0.79
9432.00,0.79
9431.00,0.79
9430.00,0.79
9429.00,0.79
9428.00,0.79
9427.00,0.79
9426.00,0.80
9425.00,0.80
9424.00,0.80
9423.00,0.80
9422.00,0.80
9421.00,0.80
9420.00,0.80
9419.00,0.80
9418.00,0.80
9417.00,0.81
9416.00,0.81
9415.00,0.81
9414.00,0.81
9413.00,0.81
9412.00,0.81
9411.00,0.81
9410.00,0.81
9409.00,0.81
9408.00,0.81
9407.00,0.81
9406.00,0.81
9405.00,0.81
9404.00,0.81
9403.00,0.81
9402.00,0.81
9401.00,0.81
9400.00,0.81
9399.00,0.81
9398.00,0.81
9397.00,0.81
9396.00,0.81
9395.00,0.81
9394.00,0.81
9393.00,0.81
9392.00,0.81
9391.00,0.81
9390.00,0.81
9389.00,0.81
9388.00,0.81
9387.00,0.81
9386.00,0.80
9385.00,0.80
9384.00,0.80
9383.00,0.80
9382.00,0.80
9381.00,0.80
9380.00,0.79
9379.00,0.79
9378.00,0.79
9377.00,0.79
9376.00,0.79
9375.00,0.79
9374.00,0.78
9373.00,0.78
9372.00,0.78
9371.00,0.78
9370.00,0.78
9369.00,0.78
9368.00,0.78
9367.00,0.78
9366.00,0.78
9365.00,0.78
9364.00,0.78
9363.00,0.78
9362.00,0.78
9361.00,0.78
9360.00,0.78
9359.00,0.78
9358.00,0.78
9357.00,0.78
9356.00,0.78
9355.00,0.78
9354.00,0.78
9353.00,0.78
9352.00,0.78
9351.00,0.78
9350.00,0.78
9349.00,0.78
9348.00,0.78
9347.00,0.78
9346.00,0.78
9345.00,0.78
9344.00,0.78
9343.00,0.78
9342.00,0.78
9341.00,0.78
9340.00,0.78
9339.00,0.78
9338.00,0.78
9337.00,0.78
9336.00,0.78
9335.00,0.78
9334.00,0.78
9333.00,0.78
9332.00,0.78
9331.00,0.78
9330.00,0.78
9329.00,0.78
9328.00,0.79
9327.00,0.79
9326.00,0.79
9325.00,0.79
9324.00,0.79
9323.00,0.80
9322.00,0.80
9321.00,0.80
9320.00,0.80
9319.00,0.81
9318.00,0.81
9317.00,0.81
9316.00,0.81
9315.00,0.81
9314.00,0.81
9313.00,0.81
9312.00,0.81
9311.00,0.81
9310.00,0.81
9309.00,0.81
9308.00,0.81
9307.00,0.80
9306.00,0.80
9305.00,0.80
9304.00,0.79
9303.00,0.79
9302.00,0.79
9301.00,0.79
9300.00,0.78
9299.00,0.78
9298.00,0.78
9297.00,0.78
9296.00,0.78
9295.00,0.78
9294.00,0.78
9293.00,0.78
9292.00,0.78
9291.00,0.78
9290.00,0.78
9289.00,0.78
9288.00,0.79
9287.00,0.79
9286.00,0.79
9285.00,0.79
9284.00,0.79
9283.00,0.79
9282.00,0.79
9281.00,0.79
9280.00,0.79
9279.00,0.79
9278.00,0.79
9277.00,0.80
9276.00,0.80
9275.00,0.80
9274.00,0.80
9273.00,0.80
9272.00,0.80
9271.00,0.80
9270.00,0.80
9269.00,0.80
9268.00,0.80
9267.00,0.80
9266.00,0.80
9265.00,0.80
9264.00,0.80
9263.00,0.80
9262.00,0.80
9261.00,0.80
9260.00,0.80
9259.00,0.80
9258.00,0.80
9257.00,0.80
9256.00,0.80
9255.00,0.80
9254.00,0.80
9253.00,0.80
9252.00,0.80
9251.00,0.80
9250.00,0.80
9249.00,0.80
9248.00,0.80
9247.00,0.80
9246.00,0.79
9245.00,0.79
9244.00,0.79
9243.00,0.79
9242.00,0.79
9241.00,0.79
9240.00,0.79
9239.00,0.79
9238.00,0.78
9237.00,0.78
9236.00,0.78
9235.00,0.78
9234.00,0.78
9233.00,0.78
9232.00,0.79
9231.00,0.79
9230.00,0.79
9229.00,0.79
9228.00,0.79
9227.00,0.79
9226.00,0.79
9225.00,0.79
9224.00,0.80
9223.00,0.80
9222.00,0.80
9221.00,0.80
9220.00,0.80
9219.00,0.80
9218.00,0.80
9217.00,0.81
9216.00,0.81
9215.00,0.81
9214.00,0.81
9213.00,0.81
9212.00,0.81
9211.00,0.82
9210.00,0.82
9209.00,0.82
9208.00,0.82
9207.00,0.82
9206.00,0.83
9205.00,0.83
9204.00,0.83
9203.00,0.83
9202.00,0.83
9201.00,0.83
9200.00,0.83
9199.00,0.83
9198.00,0.83
9197.00,0.83
9196.00,0.83
9195.00,0.83
9194.00,0.83
9193.00,0.83
9192.00,0.83
9191.00,0.83
9190.00,0.83
9189.00,0.82
9188.00,0.82
9187.00,0.82
9186.00,0.82
9185.00,0.82
9184.00,0.81
9183.00,0.81
9182.00,0.81
9181.00,0.81
9180.00,0.81
9179.00,0.81
9178.00,0.81
9177.00,0.80
9176.00,0.80
9175.00,0.80
9174.00,0.80
9173.00,0.80
9172.00,0.80
9171.00,0.80
9170.00,0.80
9169.00,0.80
9168.00,0.80
9167.00,0.80
9166.00,0.80
9165.00,0.80
9164.00,0.80
9163.00,0.80
9162.00,0.80
9161.00,0.80
9160.00,0.80
9159.00,0.80
9158.00,0.80
9157.00,0.80
9156.00,0.80
9155.00,0.80
9154.00,0.80
9153.00,0.80
9152.00,0.80
9151.00,0.80
9150.00,0.80
9149.00,0.80
9148.00,0.80
9147.00,0.80
9146.00,0.79
9145.00,0.79
9144.00,0.79
9143.00,0.79
9142.00,0.79
9141.00,0.79
9140.00,0.79
9139.00,0.78
9138.00,0.78
9137.00,0.78
9136.00,0.78
9135.00,0.78
9134.00,0.78
9133.00,0.78
9132.00,0.78
9131.00,0.78
9130.00,0.78
9129.00,0.78
9128.00,0.78
9127.00,0.78
9126.00,0.78
9125.00,0.79
9124.00,0.79
9123.00,0.79
9122.00,0.79
9121.00,0.79
9120.00,0.79
9119.00,0.80
9118.00,0.80
9117.00,0.80
9116.00,0.80
9115.00,0.80
9114.00,0.80
9113.00,0.80
9112.00,0.80
9111.00,0.80
9110.00,0.80
9109.00,0.80
9108.00,0.80
9107.00,0.80
9106.00,0.80
9105.00,0.80
9104.00,0.80
9103.00,0.80
9102.00,0.80
9101.00,0.80
9100.00,0.80
9099.00,0.80
9098.00,0.80
9097.00,0.80
9096.00,0.80
9095.00,0.80
9094.00,0.80
9093.00,0.80
9092.00,0.80
9091.00,0.80
9090.00,0.80
9089.00,0.80
9088.00,0.80
9087.00,0.80
9086.00,0.79
9085.00,0.79
9084.00,0.79
9083.00,0.79
9082.00,0.79
9081.00,0.79
9080.00,0.79
9079.00,0.79
9078.00,0.79
9077.00,0.78
9076.00,0.79
9075.00,0.79
9074.00,0.79
9073.00,0.79
9072.00,0.79
9071.00,0.79
9070.00,0.79
9069.00,0.79
9068.00,0.79
9067.00,0.79
9066.00,0.79
9065.00,0.79
9064.00,0.79
9063.00,0.79
9062.00,0.79
9061.00,0.79
9060.00,0.79
9059.00,0.79
9058.00,0.79
9057.00,0.79
9056.00,0.79
9055.00,0.80
9054.00,0.80
9053.00,0.80
9052.00,0.80
9051.00,0.80
9050.00,0.80
9049.00,0.80
9048.00,0.80
9047.00,0.80
9046.00,0.80
9045.00,0.80
9044.00,0.81
9043.00,0.81
9042.00,0.81
9041.00,0.81
9040.00,0.81
9039.00,0.81
9038.00,0.81
9037.00,0.81
9036.00,0.81
9035.00,0.81
9034.00,0.81
9033.00,0.82
9032.00,0.82
9031.00,0.82
9030.00,0.82
9029.00,0.82
9028.00,0.82
9027.00,0.82
9026.00,0.82
9025.00,0.82
9024.00,0.82
9023.00,0.82
9022.00,0.82
9021.00,0.82
9020.00,0.82
9019.00,0.82
9018.00,0.82
9017.00,0.82
9016.00,0.82
9015.00,0.82
9014.00,0.82
9013.00,0.82
9012.00,0.82
9011.00,0.82
9010.00,0.82
9009.00,0.82
9008.00,0.82
9007.00,0.82
9006.00,0.82
9005.00,0.82
9004.00,0.82
9003.00,0.82
9002.00,0.82
9001.00,0.82
9000.00,0.82
8999.00,0.82
8998.00,0.82
8997.00,0.82
8996.00,0.82
8995.00,0.82
8994.00,0.82
8993.00,0.82
8992.00,0.82
8991.00,0.82
8990.00,0.82
8989.00,0.82
8988.00,0.82
8987.00,0.82
8986.00,0.82
8985.00,0.82
8984.00,0.82
8983.00,0.82
8982.00,0.82
8981.00,0.82
8980.00,0.82
8979.00,0.82
8978.00,0.82
8977.00,0.82
8976.00,0.82
8975.00,0.82
8974.00,0.81
8973.00,0.81
8972.00,0.81
8971.00,0.81
8970.00,0.81
8969.00,0.81
8968.00,0.81
8967.00,0.81
8966.00,0.81
8965.00,0.81
8964.00,0.81
8963.00,0.81
8962.00,0.81
8961.00,0.81
8960.00,0.81
8959.00,0.81
8958.00,0.80
8957.00,0.80
8956.00,0.80
8955.00,0.80
8954.00,0.80
8953.00,0.80
8952.00,0.80
8951.00,0.80
8950.00,0.80
8949.00,0.80
8948.00,0.80
8947.00,0.80
8946.00,0.80
8945.00,0.80
8944.00,0.80
8943.00,0.80
8942.00,0.80
8941.00,0.80
8940.00,0.80
8939.00,0.80
8938.00,0.80
8937.00,0.80
8936.00,0.80
8935.00,0.80
8934.00,0.80
8933.00,0.79
8932.00,0.79
8931.00,0.79
8930.00,0.79
8929.00,0.79
8928.00,0.79
8927.00,0.79
8926.00,0.78
8925.00,0.78
8924.00,0.78
8923.00,0.78
8922.00,0.78
8921.00,0.78
8920.00,0.78
8919.00,0.78
8918.00,0.78
8917.00,0.79
8916.00,0.79
8915.00,0.79
8914.00,0.79
8913.00,0.80
8912.00,0.80
8911.00,0.80
8910.00,0.80
8909.00,0.80
8908.00,0.81
8907.00,0.81
8906.00,0.81
8905.00,0.81
8904.00,0.81
8903.00,0.81
8902.00,0.81
8901.00,0.81
8900.00,0.81
8899.00,0.81
8898.00,0.81
8897.00,0.81
8896.00,0.81
8895.00,0.81
8894.00,0.81
8893.00,0.81
8892.00,0.81
8891.00,0.81
8890.00,0.81
8889.00,0.82
8888.00,0.82
8887.00,0.82
8886.00,0.82
8885.00,0.82
8884.00,0.82
8883.00,0.82
8882.00,0.82
8881.00,0.82
8880.00,0.82
8879.00,0.82
8878.00,0.82
8877.00,0.82
8876.00,0.82
8875.00,0.82
8874.00,0.82
8873.00,0.82
8872.00,0.82
8871.00,0.82
8870.00,0.82
8869.00,0.82
8868.00,0.82
8867.00,0.82
8866.00,0.82
8865.00,0.81
8864.00,0.81
8863.00,0.81
8862.00,0.81
8861.00,0.81
8860.00,0.81
8859.00,0.81
8858.00,0.81
8857.00,0.81
8856.00,0.81
8855.00,0.81
8854.00,0.81
8853.00,0.81
8852.00,0.81
8851.00,0.81
8850.00,0.81
8849.00,0.81
8848.00,0.80
8847.00,0.80
8846.00,0.80
8845.00,0.80
8844.00,0.80
8843.00,0.80
8842.00,0.80
8841.00,0.80
8840.00,0.79
8839.00,0.79
8838.00,0.79
8837.00,0.79
8836.00,0.79
8835.00,0.79
8834.00,0.79
8833.00,0.79
8832.00,0.79
8831.00,0.80
8830.00,0.80
8829.00,0.80
8828.00,0.80
8827.00,0.80
8826.00,0.80
8825.00,0.80
8824.00,0.80
8823.00,0.80
8822.00,0.80
8821.00,0.80
8820.00,0.80
8819.00,0.80
8818.00,0.80
8817.00,0.80
8816.00,0.80
8815.00,0.80
8814.00,0.80
8813.00,0.80
8812.00,0.79
8811.00,0.79
8810.00,0.79
8809.00,0.79
8808.00,0.79
8807.00,0.79
8806.00,0.79
8805.00,0.79
8804.00,0.79
8803.00,0.79
8802.00,0.79
8801.00,0.79
8800.00,0.79
8799.00,0.79
8798.00,0.79
8797.00,0.79
8796.00,0.79
8795.00,0.79
8794.00,0.79
8793.00,0.79
8792.00,0.79
8791.00,0.79
8790.00,0.79
8789.00,0.79
8788.00,0.79
8787.00,0.79
8786.00,0.79
8785.00,0.79
8784.00,0.79
8783.00,0.79
8782.00,0.79
8781.00,0.79
8780.00,0.79
8779.00,0.79
8778.00,0.79
8777.00,0.78
8776.00,0.78
8775.00,0.78
8774.00,0.78
8773.00,0.78
8772.00,0.78
8771.00,0.78
8770.00,0.78
8769.00,0.78
8768.00,0.78
8767.00,0.78
8766.00,0.78
8765.00,0.78
8764.00,0.78
8763.00,0.78
8762.00,0.78
8761.00,0.78
8760.00,0.78
8759.00,0.78
8758.00,0.78
8757.00,0.78
8756.00,0.78
8755.00,0.78
8754.00,0.79
8753.00,0.79
8752.00,0.79
8751.00,0.79
8750.00,0.79
8749.00,0.79
8748.00,0.79
8747.00,0.79
8746.00,0.79
8745.00,0.79
8744.00,0.79
8743.00,0.79
8742.00,0.79
8741.00,0.79
8740.00,0.79
8739.00,0.78
8738.00,0.78
8737.00,0.78
8736.00,0.78
8735.00,0.78
8734.00,0.78
8733.00,0.78
8732.00,0.78
8731.00,0.78
8730.00,0.78
8729.00,0.78
8728.00,0.78
8727.00,0.78
8726.00,0.78
8725.00,0.78
8724.00,0.78
8723.00,0.78
8722.00,0.78
8721.00,0.78
8720.00,0.78
8719.00,0.78
8718.00,0.78
8717.00,0.78
8716.00,0.78
8715.00,0.78
8714.00,0.78
8713.00,0.78
8712.00,0.78
8711.00,0.78
8710.00,0.78
8709.00,0.78
8708.00,0.78
8707.00,0.78
8706.00,0.78
8705.00,0.78
8704.00,0.78
8703.00,0.78
8702.00,0.78
8701.00,0.78
8700.00,0.78
8699.00,0.78
8698.00,0.78
8697.00,0.78
8696.00,0.78
8695.00,0.78
8694.00,0.78
8693.00,0.78
8692.00,0.78
8691.00,0.78
8690.00,0.78
8689.00,0.78
8688.00,0.78
8687.00,0.78
8686.00,0.78
8685.00,0.78
8684.00,0.78
8683.00,0.78
8682.00,0.78
8681.00,0.78
8680.00,0.79
8679.00,0.79
8678.00,0.79
8677.00,0.79
8676.00,0.79
8675.00,0.79
8674.00,0.79
8673.00,0.79
8672.00,0.78
8671.00,0.78
8670.00,0.78
8669.00,0.78
8668.00,0.78
8667.00,0.78
8666.00,0.78
8665.00,0.78
8664.00,0.78
8663.00,0.78
8662.00,0.78
8661.00,0.78
8660.00,0.78
8659.00,0.78
8658.00,0.78
8657.00,0.78
8656.00,0.78
8655.00,0.78
8654.00,0.78
8653.00,0.78
8652.00,0.78
8651.00,0.78
8650.00,0.78
8649.00,0.78
8648.00,0.78
8647.00,0.78
8646.00,0.78
8645.00,0.78
8644.00,0.78
8643.00,0.78
8642.00,0.78
8641.00,0.78
8640.00,0.78
8639.00,0.78
8638.00,0.78
8637.00,0.78
8636.00,0.78
8635.00,0.78
8634.00,0.78
8633.00,0.78
8632.00,0.78
8631.00,0.78
8630.00,0.78
8629.00,0.78
8628.00,0.78
8627.00,0.78
8626.00,0.78
8625.00,0.78
8624.00,0.78
8623.00,0.78
8622.00,0.78
8621.00,0.78
8620.00,0.78
8619.00,0.78
8618.00,0.78
8617.00,0.78
8616.00,0.78
8615.00,0.78
8614.00,0.77
8613.00,0.77
8612.00,0.77
8611.00,0.77
8610.00,0.77
8609.00,0.77
8608.00,0.77
8607.00,0.77
8606.00,0.77
8605.00,0.77
8604.00,0.77
8603.00,0.77
8602.00,0.77
8601.00,0.77
8600.00,0.77
8599.00,0.77
8598.00,0.77
8597.00,0.78
8596.00,0.78
8595.00,0.78
8594.00,0.78
8593.00,0.78
8592.00,0.78
8591.00,0.78
8590.00,0.78
8589.00,0.78
8588.00,0.78
8587.00,0.78
8586.00,0.78
8585.00,0.78
8584.00,0.77
8583.00,0.77
8582.00,0.77
8581.00,0.77
8580.00,0.77
8579.00,0.77
8578.00,0.77
8577.00,0.77
8576.00,0.77
8575.00,0.77
8574.00,0.77
8573.00,0.77
8572.00,0.77
8571.00,0.77
8570.00,0.77
8569.00,0.77
8568.00,0.77
8567.00,0.77
8566.00,0.77
8565.00,0.77
8564.00,0.77
8563.00,0.77
8562.00,0.77
8561.00,0.77
8560.00,0.77
8559.00,0.77
8558.00,0.77
8557.00,0.77
8556.00,0.77
8555.00,0.77
8554.00,0.77
8553.00,0.77
8552.00,0.77
8551.00,0.77
8550.00,0.77
8549.00,0.77
8548.00,0.77
8547.00,0.77
8546.00,0.77
8545.00,0.77
8544.00,0.77
8543.00,0.77
8542.00,0.77
8541.00,0.77
8540.00,0.77
8539.00,0.77
8538.00,0.77
8537.00,0.77
8536.00,0.77
8535.00,0.77
8534.00,0.77
8533.00,0.76
8532.00,0.76
8531.00,0.76
8530.00,0.76
8529.00,0.76
8528.00,0.76
8527.00,0.76
8526.00,0.76
8525.00,0.76
8524.00,0.76
8523.00,0.76
8522.00,0.76
8521.00,0.76
8520.00,0.76
8519.00,0.76
8518.00,0.76
8517.00,0.76
8516.00,0.76
8515.00,0.76
8514.00,0.76
8513.00,0.76
8512.00,0.76
8511.00,0.76
8510.00,0.76
8509.00,0.76
8508.00,0.76
8507.00,0.76
8506.00,0.76
8505.00,0.76
8504.00,0.75
8503.00,0.75
8502.00,0.75
8501.00,0.75
8500.00,0.75
8499.00,0.75
8498.00,0.75
8497.00,0.75
8496.00,0.75
8495.00,0.75
8494.00,0.75
8493.00,0.74
8492.00,0.74
8491.00,0.74
8490.00,0.74
8489.00,0.74
8488.00,0.74
8487.00,0.74
8486.00,0.74
8485.00,0.74
8484.00,0.74
8483.00,0.74
8482.00,0.74
8481.00,0.74
8480.00,0.74
8479.00,0.74
8478.00,0.74
8477.00,0.74
8476.00,0.74
8475.00,0.74
8474.00,0.74
8473.00,0.74
8472.00,0.74
8471.00,0.74
8470.00,0.74
8469.00,0.74
8468.00,0.74
