创建为新数据集,样品 691 用户 Administrator 日期 星期四, 七月 19 2018
cm-1,%T
10000.00,0.87
9999.00,0.87
9998.00,0.87
9997.00,0.87
9996.00,0.87
9995.00,0.87
9994.00,0.86
9993.00,0.86
9992.00,0.86
9991.00,0.86
9990.00,0.86
9989.00,0.86
9988.00,0.85
9987.00,0.85
9986.00,0.85
9985.00,0.85
9984.00,0.85
9983.00,0.84
9982.00,0.84
9981.00,0.84
9980.00,0.84
9979.00,0.84
9978.00,0.84
9977.00,0.84
9976.00,0.84
9975.00,0.84
9974.00,0.84
9973.00,0.84
9972.00,0.84
9971.00,0.84
9970.00,0.84
9969.00,0.84
9968.00,0.84
9967.00,0.84
9966.00,0.85
9965.00,0.85
9964.00,0.85
9963.00,0.85
9962.00,0.86
9961.00,0.86
9960.00,0.86
9959.00,0.86
9958.00,0.86
9957.00,0.87
9956.00,0.87
9955.00,0.87
9954.00,0.87
9953.00,0.87
9952.00,0.86
9951.00,0.86
9950.00,0.86
9949.00,0.86
9948.00,0.85
9947.00,0.85
9946.00,0.84
9945.00,0.84
9944.00,0.84
9943.00,0.83
9942.00,0.83
9941.00,0.83
9940.00,0.82
9939.00,0.82
9938.00,0.82
9937.00,0.82
9936.00,0.82
9935.00,0.82
9934.00,0.82
9933.00,0.82
9932.00,0.82
9931.00,0.82
9930.00,0.83
9929.00,0.83
9928.00,0.83
9927.00,0.83
9926.00,0.84
9925.00,0.84
9924.00,0.84
9923.00,0.84
9922.00,0.84
9921.00,0.84
9920.00,0.84
9919.00,0.85
9918.00,0.85
9917.00,0.85
9916.00,0.85
9915.00,0.85
9914.00,0.85
9913.00,0.85
9912.00,0.85
9911.00,0.85
9910.00,0.84
9909.00,0.84
9908.00,0.84
9907.00,0.84
9906.00,0.84
9905.00,0.84
9904.00,0.84
9903.00,0.84
9902.00,0.84
9901.00,0.84
9900.00,0.85
9899.00,0.85
9898.00,0.85
9897.00,0.85
9896.00,0.85
9895.00,0.86
9894.00,0.86
9893.00,0.86
9892.00,0.86
9891.00,0.86
9890.00,0.87
9889.00,0.87
9888.00,0.87
9887.00,0.87
9886.00,0.87
9885.00,0.87
9884.00,0.87
9883.00,0.86
9882.00,0.86
9881.00,0.86
9880.00,0.86
9879.00,0.85
9878.00,0.85
9877.00,0.85
9876.00,0.85
9875.00,0.85
9874.00,0.85
9873.00,0.84
9872.00,0.84
9871.00,0.84
9870.00,0.84
9869.00,0.85
9868.00,0.85
9867.00,0.85
9866.00,0.85
9865.00,0.85
9864.00,0.85
9863.00,0.85
9862.00,0.85
9861.00,0.85
9860.00,0.85
9859.00,0.85
9858.00,0.85
9857.00,0.85
9856.00,0.85
9855.00,0.85
9854.00,0.85
9853.00,0.85
9852.00,0.85
9851.00,0.85
9850.00,0.85
9849.00,0.85
9848.00,0.85
9847.00,0.86
9846.00,0.86
9845.00,0.86
9844.00,0.86
9843.00,0.86
9842.00,0.86
9841.00,0.86
9840.00,0.87
9839.00,0.87
9838.00,0.87
9837.00,0.87
9836.00,0.87
9835.00,0.87
9834.00,0.86
9833.00,0.86
9832.00,0.86
9831.00,0.86
9830.00,0.86
9829.00,0.86
9828.00,0.86
9827.00,0.86
9826.00,0.86
9825.00,0.86
9824.00,0.86
9823.00,0.86
9822.00,0.86
9821.00,0.86
9820.00,0.86
9819.00,0.86
9818.00,0.86
9817.00,0.86
9816.00,0.86
9815.00,0.86
9814.00,0.86
9813.00,0.86
9812.00,0.86
9811.00,0.86
9810.00,0.86
9809.00,0.86
9808.00,0.85
9807.00,0.85
9806.00,0.85
9805.00,0.85
9804.00,0.85
9803.00,0.85
9802.00,0.84
9801.00,0.84
9800.00,0.84
9799.00,0.84
9798.00,0.84
9797.00,0.84
9796.00,0.84
9795.00,0.84
9794.00,0.84
9793.00,0.84
9792.00,0.84
9791.00,0.84
9790.00,0.84
9789.00,0.84
9788.00,0.84
9787.00,0.84
9786.00,0.84
9785.00,0.84
9784.00,0.84
9783.00,0.84
9782.00,0.84
9781.00,0.84
9780.00,0.84
9779.00,0.84
9778.00,0.84
9777.00,0.84
9776.00,0.84
9775.00,0.84
9774.00,0.84
9773.00,0.84
9772.00,0.84
9771.00,0.84
9770.00,0.83
9769.00,0.83
9768.00,0.83
9767.00,0.83
9766.00,0.83
9765.00,0.83
9764.00,0.83
9763.00,0.83
9762.00,0.83
9761.00,0.82
9760.00,0.82
9759.00,0.82
9758.00,0.82
9757.00,0.82
9756.00,0.82
9755.00,0.82
9754.00,0.82
9753.00,0.82
9752.00,0.82
9751.00,0.82
9750.00,0.83
9749.00,0.83
9748.00,0.83
9747.00,0.83
9746.00,0.83
9745.00,0.83
9744.00,0.83
9743.00,0.84
9742.00,0.84
9741.00,0.84
9740.00,0.84
9739.00,0.84
9738.00,0.84
9737.00,0.84
9736.00,0.84
9735.00,0.85
9734.00,0.85
9733.00,0.85
9732.00,0.85
9731.00,0.85
9730.00,0.85
9729.00,0.85
9728.00,0.85
9727.00,0.86
9726.00,0.86
9725.00,0.86
9724.00,0.86
9723.00,0.86
9722.00,0.86
9721.00,0.86
9720.00,0.86
9719.00,0.86
9718.00,0.86
9717.00,0.86
9716.00,0.86
9715.00,0.86
9714.00,0.85
9713.00,0.85
9712.00,0.85
9711.00,0.84
9710.00,0.84
9709.00,0.84
9708.00,0.83
9707.00,0.83
9706.00,0.83
9705.00,0.82
9704.00,0.82
9703.00,0.82
9702.00,0.81
9701.00,0.81
9700.00,0.81
9699.00,0.81
9698.00,0.81
9697.00,0.81
9696.00,0.81
9695.00,0.81
9694.00,0.81
9693.00,0.81
9692.00,0.82
9691.00,0.82
9690.00,0.82
9689.00,0.82
9688.00,0.83
9687.00,0.83
9686.00,0.83
9685.00,0.83
9684.00,0.83
9683.00,0.84
9682.00,0.84
9681.00,0.84
9680.00,0.84
9679.00,0.84
9678.00,0.85
9677.00,0.85
9676.00,0.85
9675.00,0.85
9674.00,0.85
9673.00,0.85
9672.00,0.86
9671.00,0.86
9670.00,0.86
9669.00,0.86
9668.00,0.86
9667.00,0.86
9666.00,0.86
9665.00,0.85
9664.00,0.85
9663.00,0.85
9662.00,0.85
9661.00,0.85
9660.00,0.85
9659.00,0.85
9658.00,0.85
9657.00,0.85
9656.00,0.85
9655.00,0.85
9654.00,0.85
9653.00,0.85
9652.00,0.85
9651.00,0.85
9650.00,0.85
9649.00,0.85
9648.00,0.85
9647.00,0.85
9646.00,0.85
9645.00,0.85
9644.00,0.86
9643.00,0.86
9642.00,0.86
9641.00,0.86
9640.00,0.86
9639.00,0.86
9638.00,0.86
9637.00,0.85
9636.00,0.85
9635.00,0.85
9634.00,0.85
9633.00,0.85
9632.00,0.85
9631.00,0.85
9630.00,0.85
9629.00,0.85
9628.00,0.85
9627.00,0.85
9626.00,0.84
9625.00,0.84
9624.00,0.84
9623.00,0.84
9622.00,0.84
9621.00,0.84
9620.00,0.84
9619.00,0.84
9618.00,0.84
9617.00,0.84
9616.00,0.84
9615.00,0.84
9614.00,0.84
9613.00,0.84
9612.00,0.84
9611.00,0.84
9610.00,0.84
9609.00,0.85
9608.00,0.85
9607.00,0.85
9606.00,0.85
9605.00,0.85
9604.00,0.85
9603.00,0.85
9602.00,0.85
9601.00,0.86
9600.00,0.86
9599.00,0.86
9598.00,0.86
9597.00,0.85
9596.00,0.85
9595.00,0.85
9594.00,0.85
9593.00,0.85
9592.00,0.85
9591.00,0.85
9590.00,0.85
9589.00,0.85
9588.00,0.85
9587.00,0.85
9586.00,0.85
9585.00,0.85
9584.00,0.84
9583.00,0.84
9582.00,0.84
9581.00,0.84
9580.00,0.84
9579.00,0.84
9578.00,0.84
9577.00,0.84
9576.00,0.85
9575.00,0.85
9574.00,0.85
9573.00,0.85
9572.00,0.85
9571.00,0.85
9570.00,0.85
9569.00,0.85
9568.00,0.85
9567.00,0.85
9566.00,0.85
9565.00,0.85
9564.00,0.85
9563.00,0.85
9562.00,0.85
9561.00,0.85
9560.00,0.85
9559.00,0.85
9558.00,0.85
9557.00,0.85
9556.00,0.85
9555.00,0.85
9554.00,0.85
9553.00,0.85
9552.00,0.85
9551.00,0.85
9550.00,0.85
9549.00,0.85
9548.00,0.85
9547.00,0.85
9546.00,0.85
9545.00,0.85
9544.00,0.85
9543.00,0.86
9542.00,0.86
9541.00,0.86
9540.00,0.86
9539.00,0.86
9538.00,0.86
9537.00,0.86
9536.00,0.86
9535.00,0.86
9534.00,0.86
9533.00,0.86
9532.00,0.86
9531.00,0.86
9530.00,0.86
9529.00,0.86
9528.00,0.86
9527.00,0.86
9526.00,0.86
9525.00,0.85
9524.00,0.85
9523.00,0.85
9522.00,0.85
9521.00,0.85
9520.00,0.84
9519.00,0.84
9518.00,0.84
9517.00,0.84
9516.00,0.84
9515.00,0.84
9514.00,0.84
9513.00,0.83
9512.00,0.83
9511.00,0.83
9510.00,0.83
9509.00,0.84
9508.00,0.84
9507.00,0.84
9506.00,0.84
9505.00,0.84
9504.00,0.84
9503.00,0.84
9502.00,0.84
9501.00,0.84
9500.00,0.84
9499.00,0.84
9498.00,0.84
9497.00,0.84
9496.00,0.84
9495.00,0.84
9494.00,0.84
9493.00,0.84
9492.00,0.84
9491.00,0.84
9490.00,0.84
9489.00,0.84
9488.00,0.84
9487.00,0.84
9486.00,0.84
9485.00,0.84
9484.00,0.84
9483.00,0.85
9482.00,0.85
9481.00,0.85
9480.00,0.85
9479.00,0.85
9478.00,0.85
9477.00,0.85
9476.00,0.85
9475.00,0.85
9474.00,0.85
9473.00,0.85
9472.00,0.85
9471.00,0.85
9470.00,0.85
9469.00,0.85
9468.00,0.85
9467.00,0.85
9466.00,0.85
9465.00,0.85
9464.00,0.85
9463.00,0.85
9462.00,0.85
9461.00,0.85
9460.00,0.85
9459.00,0.85
9458.00,0.85
9457.00,0.84
9456.00,0.84
9455.00,0.84
9454.00,0.84
9453.00,0.84
9452.00,0.84
9451.00,0.84
9450.00,0.84
9449.00,0.84
9448.00,0.84
9447.00,0.84
9446.00,0.84
9445.00,0.84
9444.00,0.85
9443.00,0.85
9442.00,0.85
9441.00,0.85
9440.00,0.85
9439.00,0.85
9438.00,0.85
9437.00,0.85
9436.00,0.85
9435.00,0.85
9434.00,0.85
9433.00,0.85
9432.00,0.86
9431.00,0.86
9430.00,0.86
9429.00,0.86
9428.00,0.86
9427.00,0.86
9426.00,0.86
9425.00,0.86
9424.00,0.86
9423.00,0.86
9422.00,0.86
9421.00,0.86
9420.00,0.86
9419.00,0.86
9418.00,0.86
9417.00,0.86
9416.00,0.86
9415.00,0.86
9414.00,0.86
9413.00,0.86
9412.00,0.86
9411.00,0.86
9410.00,0.86
9409.00,0.86
9408.00,0.86
9407.00,0.86
9406.00,0.86
9405.00,0.86
9404.00,0.86
9403.00,0.86
9402.00,0.86
9401.00,0.86
9400.00,0.86
9399.00,0.86
9398.00,0.86
9397.00,0.86
9396.00,0.86
9395.00,0.86
9394.00,0.86
9393.00,0.85
9392.00,0.85
9391.00,0.85
9390.00,0.85
9389.00,0.85
9388.00,0.84
9387.00,0.84
9386.00,0.84
9385.00,0.84
9384.00,0.83
9383.00,0.83
9382.00,0.83
9381.00,0.83
9380.00,0.83
9379.00,0.83
9378.00,0.83
9377.00,0.83
9376.00,0.83
9375.00,0.83
9374.00,0.83
9373.00,0.83
9372.00,0.83
9371.00,0.83
9370.00,0.83
9369.00,0.83
9368.00,0.83
9367.00,0.83
9366.00,0.84
9365.00,0.84
9364.00,0.84
9363.00,0.84
9362.00,0.84
9361.00,0.84
9360.00,0.84
9359.00,0.84
9358.00,0.84
9357.00,0.84
9356.00,0.84
9355.00,0.85
9354.00,0.85
9353.00,0.85
9352.00,0.85
9351.00,0.85
9350.00,0.85
9349.00,0.85
9348.00,0.85
9347.00,0.85
9346.00,0.85
9345.00,0.85
9344.00,0.86
9343.00,0.86
9342.00,0.86
9341.00,0.86
9340.00,0.86
9339.00,0.86
9338.00,0.86
9337.00,0.86
9336.00,0.86
9335.00,0.86
9334.00,0.86
9333.00,0.86
9332.00,0.87
9331.00,0.87
9330.00,0.87
9329.00,0.87
9328.00,0.87
9327.00,0.87
9326.00,0.87
9325.00,0.87
9324.00,0.87
9323.00,0.87
9322.00,0.87
9321.00,0.87
9320.00,0.86
9319.00,0.86
9318.00,0.86
9317.00,0.86
9316.00,0.86
9315.00,0.86
9314.00,0.86
9313.00,0.86
9312.00,0.86
9311.00,0.85
9310.00,0.85
9309.00,0.85
9308.00,0.85
9307.00,0.85
9306.00,0.85
9305.00,0.85
9304.00,0.85
9303.00,0.85
9302.00,0.85
9301.00,0.85
9300.00,0.85
9299.00,0.85
9298.00,0.85
9297.00,0.85
9296.00,0.85
9295.00,0.85
9294.00,0.85
9293.00,0.85
9292.00,0.85
9291.00,0.85
9290.00,0.85
9289.00,0.85
9288.00,0.85
9287.00,0.85
9286.00,0.85
9285.00,0.85
9284.00,0.85
9283.00,0.86
9282.00,0.86
9281.00,0.86
9280.00,0.86
9279.00,0.86
9278.00,0.86
9277.00,0.86
9276.00,0.86
9275.00,0.85
9274.00,0.85
9273.00,0.85
9272.00,0.85
9271.00,0.85
9270.00,0.85
9269.00,0.85
9268.00,0.85
9267.00,0.84
9266.00,0.84
9265.00,0.84
9264.00,0.84
9263.00,0.84
9262.00,0.84
9261.00,0.84
9260.00,0.84
9259.00,0.84
9258.00,0.84
9257.00,0.84
9256.00,0.84
9255.00,0.84
9254.00,0.84
9253.00,0.84
9252.00,0.84
9251.00,0.84
9250.00,0.84
9249.00,0.85
9248.00,0.85
9247.00,0.85
9246.00,0.85
9245.00,0.85
9244.00,0.85
9243.00,0.85
9242.00,0.85
9241.00,0.86
9240.00,0.86
9239.00,0.86
9238.00,0.86
9237.00,0.86
9236.00,0.86
9235.00,0.86
9234.00,0.86
9233.00,0.86
9232.00,0.86
9231.00,0.86
9230.00,0.86
9229.00,0.86
9228.00,0.86
9227.00,0.85
9226.00,0.85
9225.00,0.85
9224.00,0.85
9223.00,0.85
9222.00,0.85
9221.00,0.85
9220.00,0.85
9219.00,0.85
9218.00,0.85
9217.00,0.85
9216.00,0.85
9215.00,0.86
9214.00,0.86
9213.00,0.86
9212.00,0.86
9211.00,0.86
9210.00,0.86
9209.00,0.86
9208.00,0.86
9207.00,0.86
9206.00,0.86
9205.00,0.86
9204.00,0.86
9203.00,0.86
9202.00,0.86
9201.00,0.86
9200.00,0.86
9199.00,0.86
9198.00,0.85
9197.00,0.85
9196.00,0.85
9195.00,0.85
9194.00,0.85
9193.00,0.85
9192.00,0.85
9191.00,0.85
9190.00,0.85
9189.00,0.85
9188.00,0.85
9187.00,0.85
9186.00,0.85
9185.00,0.85
9184.00,0.85
9183.00,0.85
9182.00,0.86
9181.00,0.86
9180.00,0.86
9179.00,0.86
9178.00,0.86
9177.00,0.86
9176.00,0.86
9175.00,0.86
9174.00,0.86
9173.00,0.86
9172.00,0.86
9171.00,0.86
9170.00,0.86
9169.00,0.86
9168.00,0.86
9167.00,0.85
9166.00,0.85
9165.00,0.85
9164.00,0.85
9163.00,0.85
9162.00,0.84
9161.00,0.84
9160.00,0.84
9159.00,0.84
9158.00,0.84
9157.00,0.84
9156.00,0.84
9155.00,0.84
9154.00,0.84
9153.00,0.84
9152.00,0.84
9151.00,0.85
9150.00,0.85
9149.00,0.85
9148.00,0.85
9147.00,0.85
9146.00,0.86
9145.00,0.86
9144.00,0.86
9143.00,0.86
9142.00,0.86
9141.00,0.87
9140.00,0.87
9139.00,0.87
9138.00,0.87
9137.00,0.87
9136.00,0.87
9135.00,0.87
9134.00,0.87
9133.00,0.87
9132.00,0.87
9131.00,0.87
9130.00,0.87
9129.00,0.87
9128.00,0.87
9127.00,0.87
9126.00,0.86
9125.00,0.86
9124.00,0.86
9123.00,0.86
9122.00,0.86
9121.00,0.85
9120.00,0.85
9119.00,0.85
9118.00,0.85
9117.00,0.84
9116.00,0.84
9115.00,0.84
9114.00,0.84
9113.00,0.84
9112.00,0.84
9111.00,0.84
9110.00,0.84
9109.00,0.84
9108.00,0.84
9107.00,0.84
9106.00,0.84
9105.00,0.84
9104.00,0.84
9103.00,0.84
9102.00,0.84
9101.00,0.84
9100.00,0.85
9099.00,0.85
9098.00,0.85
9097.00,0.85
9096.00,0.85
9095.00,0.85
9094.00,0.85
9093.00,0.85
9092.00,0.85
9091.00,0.85
9090.00,0.85
9089.00,0.86
9088.00,0.86
9087.00,0.86
9086.00,0.86
9085.00,0.86
9084.00,0.86
9083.00,0.86
9082.00,0.86
9081.00,0.86
9080.00,0.86
9079.00,0.86
9078.00,0.86
9077.00,0.86
9076.00,0.86
9075.00,0.86
9074.00,0.86
9073.00,0.86
9072.00,0.86
9071.00,0.86
9070.00,0.86
9069.00,0.86
9068.00,0.86
9067.00,0.86
9066.00,0.86
9065.00,0.86
9064.00,0.86
9063.00,0.86
9062.00,0.86
9061.00,0.86
9060.00,0.86
9059.00,0.86
9058.00,0.86
9057.00,0.86
9056.00,0.86
9055.00,0.86
9054.00,0.86
9053.00,0.86
9052.00,0.86
9051.00,0.86
9050.00,0.86
9049.00,0.86
9048.00,0.86
9047.00,0.86
9046.00,0.86
9045.00,0.86
9044.00,0.86
9043.00,0.86
9042.00,0.86
9041.00,0.85
9040.00,0.85
9039.00,0.85
9038.00,0.85
9037.00,0.85
9036.00,0.85
9035.00,0.85
9034.00,0.85
9033.00,0.85
9032.00,0.85
9031.00,0.85
9030.00,0.85
9029.00,0.85
9028.00,0.85
9027.00,0.85
9026.00,0.85
9025.00,0.85
9024.00,0.85
9023.00,0.86
9022.00,0.86
9021.00,0.86
9020.00,0.86
9019.00,0.86
9018.00,0.86
9017.00,0.86
9016.00,0.86
9015.00,0.86
9014.00,0.86
9013.00,0.86
9012.00,0.86
9011.00,0.86
9010.00,0.86
9009.00,0.86
9008.00,0.86
9007.00,0.86
9006.00,0.86
9005.00,0.87
9004.00,0.87
9003.00,0.87
9002.00,0.87
9001.00,0.87
9000.00,0.87
8999.00,0.87
8998.00,0.87
8997.00,0.87
8996.00,0.87
8995.00,0.87
8994.00,0.87
8993.00,0.87
8992.00,0.87
8991.00,0.87
8990.00,0.87
8989.00,0.87
8988.00,0.87
8987.00,0.87
8986.00,0.87
8985.00,0.87
8984.00,0.87
8983.00,0.87
8982.00,0.87
8981.00,0.87
8980.00,0.87
8979.00,0.87
8978.00,0.87
8977.00,0.87
8976.00,0.87
8975.00,0.87
8974.00,0.87
8973.00,0.87
8972.00,0.86
8971.00,0.86
8970.00,0.86
8969.00,0.86
8968.00,0.86
8967.00,0.86
8966.00,0.86
8965.00,0.86
8964.00,0.86
8963.00,0.86
8962.00,0.85
8961.00,0.85
8960.00,0.85
8959.00,0.85
8958.00,0.85
8957.00,0.85
8956.00,0.85
8955.00,0.85
8954.00,0.85
8953.00,0.85
8952.00,0.85
8951.00,0.85
8950.00,0.85
8949.00,0.85
8948.00,0.85
8947.00,0.85
8946.00,0.86
8945.00,0.86
8944.00,0.86
8943.00,0.86
8942.00,0.86
8941.00,0.86
8940.00,0.86
8939.00,0.86
8938.00,0.86
8937.00,0.86
8936.00,0.86
8935.00,0.86
8934.00,0.86
8933.00,0.86
8932.00,0.87
8931.00,0.87
8930.00,0.87
8929.00,0.87
8928.00,0.87
8927.00,0.87
8926.00,0.87
8925.00,0.87
8924.00,0.87
8923.00,0.87
8922.00,0.87
8921.00,0.87
8920.00,0.87
8919.00,0.87
8918.00,0.87
8917.00,0.87
8916.00,0.87
8915.00,0.87
8914.00,0.87
8913.00,0.87
8912.00,0.87
8911.00,0.87
8910.00,0.87
8909.00,0.87
8908.00,0.87
8907.00,0.86
8906.00,0.86
8905.00,0.86
8904.00,0.86
8903.00,0.86
8902.00,0.86
8901.00,0.86
8900.00,0.86
8899.00,0.86
8898.00,0.86
8897.00,0.86
8896.00,0.86
8895.00,0.86
8894.00,0.86
8893.00,0.86
8892.00,0.86
8891.00,0.86
8890.00,0.86
8889.00,0.86
8888.00,0.86
8887.00,0.86
8886.00,0.86
8885.00,0.86
8884.00,0.86
8883.00,0.86
8882.00,0.86
8881.00,0.86
8880.00,0.86
8879.00,0.86
8878.00,0.86
8877.00,0.86
8876.00,0.86
8875.00,0.86
8874.00,0.86
8873.00,0.86
8872.00,0.86
8871.00,0.86
8870.00,0.86
8869.00,0.86
8868.00,0.86
8867.00,0.86
8866.00,0.86
8865.00,0.86
8864.00,0.86
8863.00,0.86
8862.00,0.86
8861.00,0.86
8860.00,0.86
8859.00,0.86
8858.00,0.86
8857.00,0.86
8856.00,0.86
8855.00,0.86
8854.00,0.86
8853.00,0.85
8852.00,0.85
8851.00,0.85
8850.00,0.85
8849.00,0.85
8848.00,0.85
8847.00,0.85
8846.00,0.85
8845.00,0.85
8844.00,0.85
8843.00,0.85
8842.00,0.85
8841.00,0.85
8840.00,0.85
8839.00,0.86
8838.00,0.86
8837.00,0.86
8836.00,0.86
8835.00,0.86
8834.00,0.86
8833.00,0.86
8832.00,0.86
8831.00,0.85
8830.00,0.85
8829.00,0.85
8828.00,0.85
8827.00,0.85
8826.00,0.85
8825.00,0.85
8824.00,0.85
8823.00,0.85
8822.00,0.84
8821.00,0.84
8820.00,0.84
8819.00,0.84
8818.00,0.84
8817.00,0.84
8816.00,0.84
8815.00,0.84
8814.00,0.84
8813.00,0.85
8812.00,0.85
8811.00,0.85
8810.00,0.85
8809.00,0.85
8808.00,0.85
8807.00,0.85
8806.00,0.85
8805.00,0.85
8804.00,0.85
8803.00,0.85
8802.00,0.85
8801.00,0.85
8800.00,0.85
8799.00,0.85
8798.00,0.84
8797.00,0.84
8796.00,0.84
8795.00,0.84
8794.00,0.84
8793.00,0.84
8792.00,0.84
8791.00,0.84
8790.00,0.84
8789.00,0.84
8788.00,0.84
8787.00,0.84
8786.00,0.84
8785.00,0.84
8784.00,0.84
8783.00,0.84
8782.00,0.84
8781.00,0.84
8780.00,0.84
8779.00,0.84
8778.00,0.84
8777.00,0.84
8776.00,0.84
8775.00,0.84
8774.00,0.84
8773.00,0.84
8772.00,0.84
8771.00,0.84
8770.00,0.84
8769.00,0.84
8768.00,0.84
8767.00,0.84
8766.00,0.84
8765.00,0.84
8764.00,0.84
8763.00,0.84
8762.00,0.84
8761.00,0.84
8760.00,0.84
8759.00,0.84
8758.00,0.84
8757.00,0.84
8756.00,0.84
8755.00,0.84
8754.00,0.84
8753.00,0.84
8752.00,0.84
8751.00,0.83
8750.00,0.83
8749.00,0.83
8748.00,0.83
8747.00,0.83
8746.00,0.83
8745.00,0.83
8744.00,0.83
8743.00,0.82
8742.00,0.82
8741.00,0.82
8740.00,0.82
8739.00,0.82
8738.00,0.82
8737.00,0.82
8736.00,0.82
8735.00,0.82
8734.00,0.82
8733.00,0.82
8732.00,0.82
8731.00,0.82
8730.00,0.82
8729.00,0.82
8728.00,0.82
8727.00,0.82
8726.00,0.82
8725.00,0.82
8724.00,0.82
8723.00,0.82
8722.00,0.82
8721.00,0.82
8720.00,0.82
8719.00,0.82
8718.00,0.82
8717.00,0.82
8716.00,0.82
8715.00,0.82
8714.00,0.82
8713.00,0.82
8712.00,0.82
8711.00,0.82
8710.00,0.82
8709.00,0.82
8708.00,0.82
8707.00,0.82
8706.00,0.82
8705.00,0.82
8704.00,0.82
8703.00,0.82
8702.00,0.82
8701.00,0.82
8700.00,0.82
8699.00,0.82
8698.00,0.82
8697.00,0.81
8696.00,0.81
8695.00,0.81
8694.00,0.81
8693.00,0.81
8692.00,0.81
8691.00,0.81
8690.00,0.81
8689.00,0.81
8688.00,0.81
8687.00,0.81
8686.00,0.81
8685.00,0.81
8684.00,0.81
8683.00,0.81
8682.00,0.81
8681.00,0.81
8680.00,0.81
8679.00,0.81
8678.00,0.81
8677.00,0.81
8676.00,0.81
8675.00,0.81
8674.00,0.81
8673.00,0.81
8672.00,0.81
8671.00,0.81
8670.00,0.81
8669.00,0.81
8668.00,0.81
8667.00,0.81
8666.00,0.81
8665.00,0.81
8664.00,0.81
8663.00,0.81
8662.00,0.81
8661.00,0.81
8660.00,0.81
8659.00,0.81
8658.00,0.81
8657.00,0.81
8656.00,0.81
8655.00,0.82
8654.00,0.82
8653.00,0.82
8652.00,0.82
8651.00,0.82
8650.00,0.82
8649.00,0.82
8648.00,0.82
8647.00,0.82
8646.00,0.82
8645.00,0.82
8644.00,0.83
8643.00,0.83
8642.00,0.83
8641.00,0.83
8640.00,0.83
8639.00,0.83
8638.00,0.83
8637.00,0.83
8636.00,0.83
8635.00,0.83
8634.00,0.83
8633.00,0.83
8632.00,0.83
8631.00,0.83
8630.00,0.83
8629.00,0.82
8628.00,0.82
8627.00,0.82
8626.00,0.82
8625.00,0.82
8624.00,0.82
8623.00,0.82
8622.00,0.82
8621.00,0.82
8620.00,0.82
8619.00,0.82
8618.00,0.82
8617.00,0.81
8616.00,0.81
8615.00,0.81
8614.00,0.81
8613.00,0.81
8612.00,0.81
8611.00,0.81
8610.00,0.81
8609.00,0.81
8608.00,0.81
8607.00,0.81
8606.00,0.81
8605.00,0.81
8604.00,0.81
8603.00,0.80
8602.00,0.80
8601.00,0.80
8600.00,0.80
8599.00,0.80
8598.00,0.80
8597.00,0.80
8596.00,0.80
8595.00,0.80
8594.00,0.80
8593.00,0.80
8592.00,0.80
8591.00,0.80
8590.00,0.80
8589.00,0.80
8588.00,0.80
8587.00,0.80
8586.00,0.80
8585.00,0.80
8584.00,0.80
8583.00,0.80
8582.00,0.80
8581.00,0.80
8580.00,0.80
8579.00,0.80
8578.00,0.80
8577.00,0.80
8576.00,0.80
8575.00,0.80
8574.00,0.80
8573.00,0.80
8572.00,0.80
8571.00,0.80
8570.00,0.79
8569.00,0.79
8568.00,0.79
8567.00,0.79
8566.00,0.79
8565.00,0.79
8564.00,0.79
8563.00,0.79
8562.00,0.79
8561.00,0.78
8560.00,0.78
8559.00,0.78
8558.00,0.78
8557.00,0.78
8556.00,0.78
8555.00,0.78
8554.00,0.78
8553.00,0.78
8552.00,0.78
8551.00,0.78
8550.00,0.78
8549.00,0.78
8548.00,0.79
8547.00,0.79
8546.00,0.79
8545.00,0.79
8544.00,0.79
8543.00,0.79
8542.00,0.79
8541.00,0.79
8540.00,0.79
8539.00,0.79
8538.00,0.79
8537.00,0.79
8536.00,0.79
8535.00,0.79
8534.00,0.79
8533.00,0.79
8532.00,0.79
8531.00,0.79
8530.00,0.79
8529.00,0.79
8528.00,0.79
8527.00,0.79
8526.00,0.79
8525.00,0.79
8524.00,0.79
8523.00,0.79
8522.00,0.79
8521.00,0.79
8520.00,0.79
8519.00,0.79
8518.00,0.79
8517.00,0.79
8516.00,0.79
8515.00,0.79
8514.00,0.79
8513.00,0.79
8512.00,0.78
8511.00,0.78
8510.00,0.78
8509.00,0.78
8508.00,0.78
8507.00,0.78
8506.00,0.78
8505.00,0.78
8504.00,0.78
8503.00,0.78
8502.00,0.78
8501.00,0.78
8500.00,0.78
8499.00,0.78
8498.00,0.78
8497.00,0.78
8496.00,0.78
8495.00,0.78
8494.00,0.78
8493.00,0.78
8492.00,0.78
8491.00,0.78
8490.00,0.78
8489.00,0.78
8488.00,0.78
8487.00,0.78
8486.00,0.78
8485.00,0.78
8484.00,0.78
8483.00,0.78
8482.00,0.78
8481.00,0.78
8480.00,0.78
8479.00,0.78
8478.00,0.78
8477.00,0.78
8476.00,0.78
8475.00,0.78
8474.00,0.78
8473.00,0.78
8472.00,0.78
8471.00,0.77
8470.00,0.77
8469.00,0.77
8468.00,0.77
